Baseline 100%T,,empty_1,,empty_2_1,,empty_2_2,,empty_2_3,,empty_2_4,,empty_2_5,,empty_2_6,,empty_2_7,,empty_2_8,,empty_2_9,,empty_2_10,,empty_2_11,,empty_2_12,,empty_2_13,,empty_2_14,,empty_2_15,,empty_3_1,,empty_3_2,,empty_3_3,,empty_3_4,,empty_3_5,,VG05_1_1,,VG05_1_2,,VG05_1_3,,VG05_1_4,,VG05_1_5,,Baseline 100%T,,empty_4_1,,empty_4_2,,VG09-12_1_0,,VG09-12_1_2,,VG09-12_1_4,,VG09-12_1_6,,VG09-12_1_8,,VG09-12_1_10,,VG09-12_1_12,,VG09-12_1_14,,VG09-12_1_16,,VG09-12_1_18,,VG09-12_1_20,,VG09-12_1_22,,VG09-12_1_24,,VG09-12_1_26,,VG09-12_1_28,,VG09-12_1_30,,VG09-12_1_32,,VG09-12_1_34,,VG09-12_1_36,,VG09-12_1_38,,VG09-12_1_40,,VG09-12_1_42,,VG09-12_1_44,,VG09-12_1_46,,VG09-12_1_48,,VG09-12_1_50,,empty_5_1,,empty_5_2,,empty_5_3,,empty_5_4,,empty_5_5,,
Wavelength (nm),%T,Wavelength (nm),%T,Wavelength (nm),%T,Wavelength (nm),%T,Wavelength (nm),%T,Wavelength (nm),%T,Wavelength (nm),%T,Wavelength (nm),%T,Wavelength (nm),%T,Wavelength (nm),%T,Wavelength (nm),%T,Wavelength (nm),%T,Wavelength (nm),%T,Wavelength (nm),%T,Wavelength (nm),%T,Wavelength (nm),%T,Wavelength (nm),%T,Wavelength (nm),%T,Wavelength (nm),%T,Wavelength (nm),%T,Wavelength (nm),%T,Wavelength (nm),%T,Wavelength (nm),%T,Wavelength (nm),%T,Wavelength (nm),%T,Wavelength (nm),%T,Wavelength (nm),%T,Wavelength (nm),%T,Wavelength (nm),%T,Wavelength (nm),%T,Wavelength (nm),%T,Wavelength (nm),%T,Wavelength (nm),%T,Wavelength (nm),%T,Wavelength (nm),%T,Wavelength (nm),%T,Wavelength (nm),%T,Wavelength (nm),%T,Wavelength (nm),%T,Wavelength (nm),%T,Wavelength (nm),%T,Wavelength (nm),%T,Wavelength (nm),%T,Wavelength (nm),%T,Wavelength (nm),%T,Wavelength (nm),%T,Wavelength (nm),%T,Wavelength (nm),%T,Wavelength (nm),%T,Wavelength (nm),%T,Wavelength (nm),%T,Wavelength (nm),%T,Wavelength (nm),%T,Wavelength (nm),%T,Wavelength (nm),%T,Wavelength (nm),%T,Wavelength (nm),%T,Wavelength (nm),%T,Wavelength (nm),%T,Wavelength (nm),%T,Wavelength (nm),%T,
1775,5.489972591,1775,99.67381287,1775,99.47875977,1775,99.29995728,1775,99.24274445,1775,99.27274323,1775,99.25663757,1775,99.31777191,1775,99.35417175,1775,99.36986542,1775,99.36951447,1775,99.42732239,1775,99.43821716,1775,99.49134064,1775,99.51919556,1775,99.71820068,1775,99.60887146,1775,100.0316849,1775,100.0645752,1775,100.0757065,1775,100.1592255,1775,100.1691208,1775,53.19662094,1775,53.23624039,1775,53.28033447,1775,53.28952789,1775,53.30781174,1775,5.532123089,1775,100.0381851,1775,100.1054306,1775,100.1492844,1775,87.4571228,1775,52.02879333,1775,51.39870453,1775,52.0696106,1775,52.26580048,1775,52.67498398,1775,52.64971924,1775,57.16373444,1775,53.53144836,1775,53.50645828,1775,53.49811172,1775,53.46199417,1775,53.50574112,1775,53.57450867,1775,53.60091782,1775,53.65864563,1775,53.66806412,1775,53.70110703,1775,53.7481308,1775,51.72718048,1775,49.19129181,1775,100.5397568,1775,100.8597412,1775,100.9793777,1775,101.0391693,1775,101.1241226,1775,101.1372833,1775,101.1569138,1775,101.1567383,1775,101.1826172,
1765,5.658690453,1765,99.66976929,1765,99.49494934,1765,99.30285645,1765,99.2322998,1765,99.25401306,1765,99.23915863,1765,99.31005096,1765,99.32525635,1765,99.35901642,1765,99.39161682,1765,99.41381836,1765,99.42215729,1765,99.48795319,1765,99.50687408,1765,99.71460724,1765,99.61698151,1765,100.0276108,1765,100.0489197,1765,100.0754089,1765,100.1109238,1765,100.1377716,1765,53.20754242,1765,53.2165184,1765,53.24655914,1765,53.25747299,1765,53.28475952,1765,5.700670719,1765,100.0620575,1765,100.1227646,1765,100.1282959,1765,87.50523376,1765,51.95458984,1765,51.40073395,1765,52.06223297,1765,52.2183342,1765,52.65705109,1765,52.59144974,1765,57.16123581,1765,53.53261948,1765,53.49396896,1765,53.47682953,1765,53.44239426,1765,53.52122116,1765,53.60673141,1765,53.58562469,1765,53.64519882,1765,53.65784073,1765,53.70317078,1765,53.75138474,1765,51.73880386,1765,49.13514709,1765,100.5273361,1765,100.8587952,1765,101.0112381,1765,101.0448074,1765,101.1166229,1765,101.1300201,1765,101.1851654,1765,101.1722336,1765,101.2027512,
1755,5.852805138,1755,99.66156769,1755,99.47814178,1755,99.38562775,1755,99.21146393,1755,99.24312592,1755,99.25779724,1755,99.30814362,1755,99.33247375,1755,99.34454346,1755,99.39440918,1755,99.40412903,1755,99.43684387,1755,99.47412872,1755,99.51845551,1755,99.57660675,1755,99.61200714,1755,100.0048676,1755,100.0573883,1755,100.0838623,1755,100.1166077,1755,100.1464691,1755,53.18981934,1755,53.21147919,1755,53.22142792,1755,53.2562027,1755,53.28658295,1755,5.896615982,1755,100.0625992,1755,100.1092682,1755,100.1497498,1755,87.53372192,1755,51.88470459,1755,51.38312149,1755,52.008255,1755,52.18647766,1755,52.62163925,1755,52.55088806,1755,57.16031265,1755,53.53144836,1755,53.49779129,1755,53.49778366,1755,53.42477036,1755,53.50966644,1755,53.58354568,1755,53.56141281,1755,53.61861038,1755,53.62865448,1755,53.68132782,1755,53.71274948,1755,51.71229172,1755,49.15486145,1755,100.5626831,1755,100.8867874,1755,100.9983444,1755,101.0426254,1755,101.1105499,1755,101.1549683,1755,101.1773911,1755,101.1923294,1755,101.1948853,
1745,6.037975311,1745,99.6552124,1745,99.46992493,1745,99.37982178,1745,99.21800232,1745,99.2514801,1745,99.23728943,1745,99.27592468,1745,99.31482697,1745,99.34426117,1745,99.39753723,1745,99.41082764,1745,99.42001343,1745,99.4773941,1745,99.4994812,1745,99.55848694,1745,99.615242,1745,99.99328613,1745,100.0621643,1745,100.0972519,1745,100.1229782,1745,100.1656265,1745,53.18295288,1745,53.20724869,1745,53.22854614,1745,53.25057602,1745,53.28699493,1745,6.083665848,1745,100.0456085,1745,100.0732574,1745,100.1119461,1745,87.5348587,1745,51.85038376,1745,51.32291794,1745,51.94245529,1745,52.12102509,1745,52.63312912,1745,52.53570557,1745,57.14206696,1745,53.49566269,1745,53.47128677,1745,53.46173096,1745,53.39165878,1745,53.47845459,1745,53.55789566,1745,53.5678978,1745,53.63518524,1745,53.60307693,1745,53.64973068,1745,53.71376419,1745,51.6902504,1745,49.10585785,1745,100.5181808,1745,100.8797531,1745,101.0064697,1745,101.009819,1745,101.1155472,1745,101.1323776,1745,101.1586456,1745,101.1805038,1745,101.1863022,
1735,6.230379105,1735,99.67716217,1735,99.4961319,1735,99.34646606,1735,99.24494934,1735,99.25378418,1735,99.24287415,1735,99.30178833,1735,99.3122406,1735,99.35760498,1735,99.4021759,1735,99.41336823,1735,99.45954895,1735,99.48126221,1735,99.5259552,1735,99.59021759,1735,99.63116455,1735,100.0245819,1735,100.0611877,1735,100.0830765,1735,100.1297379,1735,100.206604,1735,53.18853378,1735,53.20846558,1735,53.24174881,1735,53.24863052,1735,53.27219391,1735,6.277964115,1735,100.0677338,1735,100.1025467,1735,100.1375198,1735,87.55799866,1735,51.86854172,1735,51.31985474,1735,51.8751564,1735,52.06949615,1735,52.64365005,1735,52.52022552,1735,57.11699295,1735,53.47755051,1735,53.46999359,1735,53.46971893,1735,53.40203476,1735,53.47122574,1735,53.52865601,1735,53.59025574,1735,53.59445953,1735,53.63089371,1735,53.67092514,1735,53.69898605,1735,51.67548752,1735,49.14178085,1735,100.5340195,1735,100.8855438,1735,101.0011673,1735,101.0300751,1735,101.1332245,1735,101.1411209,1735,101.1607208,1735,101.1825714,1735,101.1643295,
1725,6.429243088,1725,99.64595032,1725,99.45701599,1725,99.32363892,1725,99.20453644,1725,99.21127319,1725,99.20531464,1725,99.27626038,1725,99.31339264,1725,99.33604431,1725,99.37052155,1725,99.38868713,1725,99.427742,1725,99.46337891,1725,99.49499512,1725,99.54753876,1725,99.59285736,1725,100.0110168,1725,100.0530243,1725,100.0824814,1725,100.1326218,1725,100.1766434,1725,53.17353058,1725,53.1989975,1725,53.19912338,1725,53.22268677,1725,53.26613617,1725,6.477949142,1725,100.0417328,,,1725,100.1080475,1725,87.54232025,1725,51.94212723,1725,51.1920166,1725,51.78873062,1725,51.98935318,1725,52.60187912,1725,52.48059464,1725,57.0925293,1725,53.47769928,1725,53.42692184,1725,53.42373276,1725,53.40445709,1725,53.45589447,1725,53.52616119,1725,53.51199341,1725,53.54747009,1725,53.59637833,1725,53.62372589,1725,53.68423462,1725,51.63465881,1725,49.14135742,1725,100.5128479,1725,100.860939,1725,100.9881134,1725,101.0269623,1725,101.1232529,1725,101.1218567,1725,101.1590118,1725,101.171196,1725,101.1804352,
1715,6.631819248,1715,99.65631104,1715,99.45661163,1715,99.3558197,1715,99.21356201,1715,99.18323517,1715,99.22232056,1715,99.28635406,1715,99.31930542,1715,99.33055115,1715,99.35546112,1715,99.39260864,1715,99.4294281,1715,99.46784973,1715,99.49767303,1715,99.56434631,1715,99.62033844,1715,100.0407791,1715,100.0552444,1715,100.0931396,1715,100.1320572,1715,100.1801834,1715,53.14806747,1715,53.17664337,1715,53.21155167,1715,53.23474503,1715,53.24880981,1715,6.681864738,1715,100.0627136,,,1715,100.1177444,1715,87.58940887,1715,51.90024948,1715,51.11983871,1715,51.64431763,1715,51.91155243,1715,52.53868866,1715,52.47319412,1715,57.1002121,1715,53.46437836,1715,53.43619537,1715,53.43325806,1715,53.37567902,1715,53.43400192,1715,53.51933289,1715,53.54297256,1715,53.55442047,1715,53.60186005,1715,53.63153839,1715,53.66237259,1715,51.62692261,1715,49.12896347,1715,100.5251312,1715,100.8505707,1715,100.9925842,1715,101.0091171,1715,101.1199112,1715,101.1407013,1715,101.162323,1715,101.1845245,1715,101.1765442,
1705,6.84224987,1705,99.64225769,1705,99.44303894,1705,99.31211853,1705,99.1905365,1705,99.18095398,1705,99.2130127,1705,99.25538635,1705,99.29358673,1705,99.29817963,1705,99.33998108,1705,99.376297,1705,99.4257431,1705,99.45031738,1705,99.50115204,1705,99.54627228,1705,99.58422089,1705,100.0133133,1705,100.0387802,1705,100.0716476,1705,100.1134262,1705,100.1594086,1705,53.13685608,1705,53.15530396,1705,53.19132233,1705,53.21225357,1705,53.24624252,1705,6.893417358,1705,100.0542374,,,1705,100.1249084,1705,87.56743622,1705,51.77212906,1705,51.16351318,1705,51.7005806,1705,51.91843414,1705,52.50704956,1705,52.47529602,1705,57.08101273,1705,53.46178436,1705,53.39662933,1705,53.4001236,1705,53.36336517,1705,53.43480682,1705,53.50093842,1705,53.54600525,1705,53.54994583,1705,53.5618248,1705,53.61866379,1705,53.65082169,1705,51.59903717,1705,49.12699127,1705,100.5058975,1705,100.8404617,1705,100.9754333,1705,101.0181656,1705,101.088295,1705,101.1134644,1705,101.1348724,1705,101.1608963,1705,101.1631012,
1695,7.055514336,1695,99.64426422,1695,99.45063019,1695,99.27822876,1695,99.18399048,1695,99.16782379,1695,99.20952606,1695,99.24675751,1695,99.30348969,1695,99.29909515,1695,99.33945465,1695,99.37263489,1695,99.40414429,1695,99.44508362,1695,99.49521637,1695,99.55117035,1695,99.59117126,1695,99.99598694,1695,100.0317078,1695,100.0562286,1695,100.0894928,1695,100.1693954,1695,53.14652252,1695,53.14553833,1695,53.16843414,1695,53.19623947,1695,53.21992493,1695,7.107063293,1695,100.0544662,,,1695,100.1237869,1695,87.57871246,1695,51.82738876,1695,51.07123184,1695,51.56972504,1695,51.82125092,1695,52.4875946,1695,52.46076584,1695,57.04756546,1695,53.43812561,1695,53.40058136,1695,53.40769196,1695,53.33570099,1695,53.42556381,1695,53.48262787,1695,53.52124405,1695,53.52127075,1695,53.55208588,1695,53.60550308,1695,53.64375687,1695,51.57839203,1695,49.10369492,1695,100.5183792,1695,100.8355713,1695,101.0087585,1695,101.0114899,1695,101.1003113,1695,101.1087646,1695,101.135788,1695,101.1516724,1695,101.1615372,
1685,7.275558949,1685,99.64518738,1685,99.48742676,1685,99.2454071,1685,99.20409393,1685,99.17006683,1685,99.20091248,1685,99.26364136,1685,99.29550171,1685,99.31456757,1685,99.35137939,1685,99.37874603,1685,99.41951752,1685,99.43965912,1685,99.48683167,1685,99.54349518,1685,99.60514069,1685,99.99219513,1685,100.0414505,1685,100.0674515,1685,100.1070633,1685,100.1910553,1685,53.13125229,1685,53.14651871,1685,53.18249893,1685,53.19222641,1685,53.20743179,1685,7.329968929,1685,100.041214,,,1685,100.101265,1685,87.55636597,1685,51.73727798,1685,51.07538223,1685,51.57567215,1685,51.83261108,1685,52.44870758,1685,52.43783569,1685,57.02868652,1685,53.41672134,1685,53.39336395,1685,53.35857773,1685,53.33026123,1685,53.38793564,1685,53.44405746,1685,53.45008469,1685,53.50682068,1685,53.54166031,1685,53.56852341,1685,53.6061821,1685,51.53989792,1685,49.10587692,1685,100.5087891,1685,100.8161697,1685,100.9895172,1685,100.9856339,1685,101.0731812,1685,101.1001129,1685,101.1203308,1685,101.1401215,1685,101.1570435,
1675,7.502149105,1675,99.62096405,1675,99.42705536,1675,99.2104187,1675,99.15503693,1675,99.1447525,1675,99.16883087,1675,99.24536133,1675,99.27075195,1675,99.27810669,1675,99.32053375,1675,99.36523438,1675,99.39910126,1675,99.40951538,1675,99.47077942,1675,99.51981354,1675,99.54792786,1675,99.97190094,1675,100.0141983,1675,100.0430603,1675,100.0832214,1675,100.1573334,1675,53.09717178,1675,53.11791992,1675,53.13664627,1675,53.17668915,1675,53.17856216,1675,7.556045055,1675,100.0362549,,,1675,100.1134033,1675,87.58534241,1675,51.72951889,1675,50.97339249,1675,51.51804733,1675,51.82978439,1675,52.38715363,1675,52.44067764,1675,57.02132034,1675,53.41862869,1675,53.37340927,1675,53.37728882,1675,53.29410934,1675,53.39508057,1675,53.42445374,1675,53.47853851,1675,53.5148735,1675,53.52072144,1675,53.56270599,1675,53.60517502,1675,51.51102448,1675,49.11664581,1675,100.5046158,1675,100.7984772,1675,100.976265,1675,100.9836655,1675,101.0593262,1675,101.096199,1675,101.1098175,1675,101.1385651,1675,101.1510239,
1665,7.730372906,1665,99.62314606,1665,99.42669678,1665,99.18068695,1665,99.16333008,1665,99.14832306,1665,99.18878937,1665,99.22887421,1665,99.27355957,1665,99.26699066,1665,99.30207825,1665,99.3588562,1665,99.37461853,1665,99.41580963,1665,99.45762634,1665,99.51699829,1665,99.55369568,1665,99.97766876,1665,99.99107361,1665,100.0416641,1665,100.0753632,1665,100.1418686,1665,53.07998657,1665,53.10150528,1665,53.11550522,1665,53.16027451,1665,53.18749619,1665,7.784198284,1665,100.0512924,,,1665,100.1150513,1665,87.5851593,1665,51.71131516,1665,50.94434738,1665,51.43291855,1665,51.76638794,1665,52.35124969,1665,52.41713715,1665,57.01862717,1665,53.37952423,1665,53.37916565,1665,53.35804749,1665,53.30263519,1665,53.37781143,1665,53.39925766,1665,53.45686722,1665,53.49136734,1665,53.5138855,1665,53.55146408,1665,53.59578705,1665,51.50894547,1665,49.121315,1665,100.4803772,1665,100.81353,1665,100.9986267,1665,101.0035172,1665,101.0658951,1665,101.0921326,1665,101.1245117,1665,101.1350021,1665,101.1605377,
1655,7.968396664,1655,99.6312561,1655,99.43701935,1655,99.21208954,1655,99.1561203,1655,99.15151215,1655,99.19252777,1655,99.24127197,1655,99.28714752,1655,99.30187988,1655,99.32095337,1655,99.36045837,1655,99.37484741,1655,99.42429352,1655,99.47731018,1655,99.51832581,1655,99.55062866,1655,99.97941589,1655,99.9876709,1655,100.0366364,1655,100.0819702,1655,100.1208572,1655,53.07370377,1655,53.09471512,1655,53.10040283,1655,53.13916779,1655,53.18240356,1655,8.023984909,1655,100.0439606,,,1655,100.1298294,1655,87.59509277,1655,51.67592239,1655,50.92515182,1655,51.38068771,1655,51.73443604,1655,52.31382751,1655,52.38714218,1655,57.00029755,1655,53.399189,1655,53.35559845,1655,53.36266708,1655,53.28801727,1655,53.35826874,1655,53.40531921,1655,53.43309784,1655,53.47380066,1655,53.51484299,1655,53.54188156,1655,53.57945633,1655,51.49576187,1655,49.14058304,1655,100.4775314,1655,100.8213501,1655,100.9824905,1655,100.9899597,1655,101.0727615,1655,101.1017075,1655,101.1304626,1655,101.1551056,1655,101.1539307,
1645,8.206851959,1645,99.61370087,1645,99.42099762,1645,99.23535919,1645,99.15792084,1645,99.13986969,1645,99.19669342,1645,99.23596191,1645,99.27954865,1645,99.27893066,1645,99.30054474,1645,99.37269592,1645,99.3650589,1645,99.42132568,1645,99.4529953,1645,99.49861145,1645,99.54714966,1645,99.96490479,1645,99.99256897,1645,100.0377502,1645,100.0817413,1645,100.1235962,1645,53.05870819,1645,53.08905792,1645,53.10585022,1645,53.12707901,1645,53.15666199,1645,8.264194489,1645,100.0543213,,,1645,100.1240463,1645,87.59063721,1645,51.63779831,1645,50.89163971,1645,51.34038925,1645,51.72648621,1645,52.27213669,1645,52.3600235,1645,56.97839355,1645,53.36616516,1645,53.32334518,1645,53.33441544,1645,53.27894211,1645,53.33950043,1645,53.38079834,1645,53.4252243,1645,53.45705795,1645,53.4847908,1645,53.51358032,1645,53.56952667,1645,51.47107697,1645,49.15486526,1645,100.4880753,1645,100.8172836,1645,100.9879456,1645,100.9953613,1645,101.0776749,1645,101.0866318,1645,101.108345,1645,101.1294708,1645,101.1431732,
1635,8.448400497,1635,99.61808014,1635,99.40501404,1635,99.17927551,1635,99.16790771,1635,99.14900208,1635,99.19562531,1635,99.2410965,1635,99.28627777,1635,99.28849792,1635,99.32059479,1635,99.36408234,1635,99.37055206,1635,99.41621399,1635,99.45617676,1635,99.5098877,1635,99.53901672,1635,99.95680237,1635,99.97299957,1635,100.0326309,1635,100.0670166,1635,100.105629,1635,53.04896927,1635,53.06756592,1635,53.07847214,1635,53.10619354,1635,53.13004303,1635,8.506462097,1635,100.0446091,,,1635,100.1163712,1635,87.58432007,1635,51.59109879,1635,50.83938217,1635,51.30404282,1635,51.71297073,1635,52.22578049,1635,52.33603287,1635,56.97305679,1635,53.3675499,1635,53.32972336,1635,53.32682037,1635,53.2517128,1635,53.32443619,1635,53.39929581,1635,53.42063904,1635,53.45674896,1635,53.47498703,1635,53.50071716,1635,53.55088806,1635,51.4307785,1635,49.15253067,1635,100.4738541,1635,100.8082886,1635,100.9565735,1635,100.9902344,1635,101.0800934,1635,101.0892639,1635,101.1155624,1635,101.1266251,1635,101.1505814,
1625,8.693713188,1625,99.60092163,1625,99.39383698,1625,99.16687012,1625,99.15830231,1625,99.12175751,1625,99.16086578,1625,99.22664642,1625,99.256073,1625,99.26795959,1625,99.30483246,1625,99.33521271,1625,99.35006714,1625,99.39601135,1625,99.45178986,1625,99.49313354,1625,99.53382111,1625,99.942276,1625,99.97990417,1625,99.99927521,1625,100.0662537,1625,100.0873108,1625,53.01968002,1625,53.04105759,1625,53.06577682,1625,53.08901596,1625,53.11675644,1625,8.752092361,1625,100.0367661,,,1625,100.1052475,1625,87.58392334,1625,51.55206299,1625,50.79576492,1625,51.2548027,1625,51.68721771,1625,52.19445038,1625,52.30009079,1625,56.9449234,1625,53.34886169,1625,53.29844284,1625,53.31298828,1625,53.23965454,1625,53.31070328,1625,53.37108231,1625,53.40619659,1625,53.42753601,1625,53.45542526,1625,53.48558426,1625,53.52920151,1625,51.40808868,1625,49.16112518,1625,100.4807129,1625,100.8113022,1625,100.9375229,1625,100.9721909,1625,101.047493,1625,101.0739899,1625,101.1209488,1625,101.1215439,1625,101.137207,
1615,8.941196442,1615,99.61486816,1615,99.39280701,1615,99.15409851,1615,99.15563965,1615,99.1292572,1615,99.18042755,1615,99.21833038,1615,99.24565887,1615,99.25956726,1615,99.31730652,1615,99.32852936,1615,99.35409546,1615,99.3925705,1615,99.45121002,1615,99.48952484,1615,99.53999329,1615,99.94156647,1615,99.97021484,1615,100.0042572,1615,100.057663,1615,100.1016617,1615,53.00193405,1615,53.04070663,1615,53.05714417,1615,53.07369995,1615,53.08976746,1615,9.001657486,1615,100.0507584,,,1615,100.1059036,1615,87.57793427,1615,51.52378845,1615,50.74440384,1615,51.20288849,1615,51.67525482,1615,52.15952301,1615,52.25876999,1615,56.94787979,1615,53.3427887,1615,53.29012299,1615,53.29983139,1615,53.21701813,1615,53.29996872,1615,53.36552811,1615,53.39919281,1615,53.42376328,1615,53.44007492,1615,53.47943115,1615,53.52008438,1615,51.3914032,1615,49.13495636,1615,100.456955,1615,100.8039703,1615,100.9521942,1615,100.9772034,1615,101.0668411,1615,101.0763397,1615,101.1050491,1615,101.1132736,1615,101.1351013,
1605,9.192279816,1605,99.63214111,1605,99.39498901,1605,99.14556122,1605,99.16226196,1605,99.12699127,1605,99.16548157,1605,99.23104858,1605,99.25721741,1605,99.25878143,1605,99.30898285,1605,99.32256317,1605,99.34996033,1605,99.40481567,1605,99.44057465,1605,99.49713898,1605,99.53549194,1605,99.94128418,1605,99.97459412,1605,100.0095825,1605,100.0643463,1605,100.0801086,1605,52.9985199,1605,53.02106857,1605,53.0452919,1605,53.06937027,1605,53.0920372,1605,9.253551483,1605,100.0524673,,,1605,100.1217346,1605,87.58174133,1605,51.49367905,1605,50.70873642,1605,51.16780853,1605,51.67792892,1605,52.13873291,1605,52.22151184,1605,56.92798615,1605,53.33271027,1605,53.28074646,1605,53.29369736,1605,53.20546722,1605,53.29598618,1605,53.36653137,1605,53.38677216,1605,53.41199493,1605,53.42004776,1605,53.46715546,1605,53.50294113,1605,51.38283539,1605,49.13278961,1605,100.4650955,1605,100.819603,1605,100.9485931,1605,100.9932632,1605,101.0650482,1605,101.0864639,1605,101.1274567,1605,101.1231308,1605,101.1528473,
1595,9.448935509,1595,99.60102081,1595,99.38401031,1595,99.11276245,1595,99.14756775,1595,99.10605621,1595,99.15210724,1595,99.19719696,1595,99.23898315,1595,99.26531219,1595,99.2986145,1595,99.31224823,1595,99.33330536,1595,99.38848114,1595,99.44034576,1595,99.48245239,1595,99.52670288,1595,99.91736603,1595,99.95518494,1595,100.0059738,1595,100.0366898,1595,100.0693665,1595,52.99004745,1595,53.00992584,1595,53.01977539,1595,53.05235291,1595,53.07018661,1595,9.511091232,1595,100.041748,,,1595,100.1156006,1595,87.59668732,1595,51.44097137,1595,50.68966675,1595,51.12963867,1595,51.6811142,1595,52.12346268,1595,52.18254471,1595,56.89036179,1595,53.33552933,1595,53.29087448,1595,53.30818176,1595,53.22675705,1595,53.2990036,1595,53.35354233,1595,53.39567184,1595,53.43566132,1595,53.44911194,1595,53.48268127,1595,53.52788544,1595,51.35016632,1595,49.14347839,1595,100.4547729,1595,100.8257141,1595,100.9565201,1595,100.9771805,1595,101.0619507,1595,101.0779495,1595,101.1020279,1595,101.1219864,1595,101.1387558,
1585,9.708450317,1585,99.60427094,1585,99.3693161,1585,99.10527802,1585,99.12308502,1585,99.11611176,1585,99.13226318,1585,99.19845581,1585,99.23648071,1585,99.2444458,1585,99.30018616,1585,99.30091858,1585,99.32880402,1585,99.39214325,1585,99.43321991,1585,99.46121216,1585,99.51995087,1585,99.92687225,1585,99.96600342,1585,99.99058533,1585,100.0195389,1585,100.056366,1585,52.98110199,1585,53.00169754,1585,53.02817917,1585,53.04753876,1585,53.07379913,1585,9.771634102,1585,100.0280533,,,1585,100.1104813,1585,87.60964203,1585,51.4114151,1585,50.61818314,1585,51.07898712,1585,51.70870972,1585,52.10064697,1585,52.17692184,1585,56.85447311,1585,53.32762527,1585,53.27960968,1585,53.29874039,1585,53.2001152,1585,53.29724503,1585,53.35783386,1585,53.38807678,1585,53.42373276,1585,53.43206406,1585,53.47196579,1585,53.51281738,1585,51.33112717,1585,49.13935852,1585,100.4589996,1585,100.8210297,1585,100.9362793,1585,100.9797821,1585,101.0664978,1585,101.0860825,1585,101.110672,1585,101.1204147,1585,101.1426773,
1575,9.970747948,1575,99.59251404,1575,99.37301636,1575,99.1155777,1575,99.11071014,1575,99.09957886,1575,99.14163971,1575,99.18827057,1575,99.23606873,1575,99.24363708,1575,99.28616333,1575,99.30226135,1575,99.31983185,1575,99.37100983,1575,99.41909027,1575,99.46141815,1575,99.51365662,1575,99.9132843,1575,99.95977783,1575,99.97422791,1575,100.0196915,1575,100.0603638,1575,52.97350311,1575,52.99272537,1575,53.02471542,1575,53.047966,1575,53.0680542,1575,10.03613853,1575,100.030304,,,1575,100.088974,1575,87.59439087,1575,51.37665176,1575,50.56885529,1575,51.03831863,1575,51.68843079,1575,52.09238052,1575,52.15513611,1575,56.78585815,1575,53.30635834,1575,53.254879,1575,53.27968597,1575,53.18211746,1575,53.26515579,1575,53.34444809,1575,53.3556633,1575,53.40919495,1575,53.40457535,1575,53.43702316,1575,53.49501419,1575,51.3049202,1575,49.1267662,1575,100.4515305,1575,100.8117523,1575,100.9298172,1575,100.970314,1575,101.0407104,1575,101.0643616,1575,101.0889053,1575,101.1053925,1575,101.1700363,
1565,10.23856068,1565,99.59509277,1565,99.35681152,1565,99.10891724,1565,99.11811829,1565,99.09701538,1565,99.1431427,1565,99.18859863,1565,99.22244263,1565,99.227005,1565,99.27949524,1565,99.28766632,1565,99.31990051,1565,99.37819672,1565,99.41036987,1565,99.45812225,1565,99.50827789,1565,99.90213013,1565,99.95440674,1565,99.96556091,1565,100.0051346,1565,100.0388184,1565,52.95946503,1565,52.97254944,1565,52.9905014,1565,53.01103592,1565,53.04462814,1565,10.30400467,1565,100.0347977,,,1565,100.103035,1565,87.60202789,1565,51.34169388,1565,50.51490021,1565,50.99801254,1565,51.69224167,1565,52.08334351,1565,52.11376572,1565,56.74406433,1565,53.28561783,1565,53.23744965,1565,53.25108337,1565,53.158535,1565,53.25813293,1565,53.30705643,1565,53.33368683,1565,53.36449814,1565,53.39609909,1565,53.42725372,1565,53.47054672,1565,51.29389191,1565,49.13909912,1565,100.4563904,1565,100.8240967,1565,100.9292374,1565,100.9671097,1565,101.0663757,1565,101.0647736,1565,101.1024475,1565,101.1134491,1565,101.1475677,
1555,10.50679207,1555,99.58872223,1555,99.33965302,1555,99.09208679,1555,99.08016205,1555,99.08655548,1555,99.1253891,1555,99.1856308,1555,99.20700073,1555,99.21543121,1555,99.28065491,1555,99.28730011,1555,99.31523895,1555,99.36275482,1555,99.41674042,1555,99.47559357,1555,99.5047226,1555,99.91864014,1555,99.96329498,1555,99.97402191,1555,100.0008545,1555,100.0380249,1555,52.93838882,1555,52.95870209,1555,52.9837265,1555,53.01896286,1555,53.01596069,1555,10.57299042,1555,100.0381699,,,1555,100.109375,1555,87.5944519,1555,51.29109573,1555,50.4876442,1555,50.96339417,1555,51.67396164,1555,52.09085846,1555,52.09168625,1555,56.70830154,1555,53.26609802,1555,53.22823334,1555,53.25623703,1555,53.14357758,1555,53.23154831,1555,53.29572678,1555,53.33238983,1555,53.35067368,1555,53.37711716,1555,53.4279747,1555,53.45686722,1555,51.27022171,1555,49.15076828,1555,100.4560928,1555,100.8352661,1555,100.9406815,1555,100.9880447,1555,101.064476,1555,101.0709076,1555,101.1059418,1555,101.1197586,1555,101.167366,
1545,10.77932835,1545,99.57535553,1545,99.32595825,1545,99.09276581,1545,99.07697296,1545,99.07581329,1545,99.13467407,1545,99.17177582,1545,99.20936584,1545,99.2240448,1545,99.26467896,1545,99.28358459,1545,99.32545471,1545,99.36743927,1545,99.394104,1545,99.47963715,1545,99.48720551,1545,99.92725372,1545,99.93260956,1545,99.97344971,1545,100.0026245,1545,100.0337982,1545,52.93003464,1545,52.95440674,1545,52.97110748,1545,52.99475861,1545,53.01004028,1545,10.84628582,1545,100.045105,,,1545,100.1063385,1545,87.59156799,1545,51.24133682,1545,50.4696846,1545,50.93576813,1545,51.64096832,1545,52.08899307,1545,52.08973312,1545,56.69914627,1545,53.26286697,1545,53.2305603,1545,53.22981644,1545,53.12511444,1545,53.24420929,1545,53.28225327,1545,53.31587219,1545,53.32569504,1545,53.36874008,1545,53.41603851,1545,53.44884491,1545,51.24472427,1545,49.1386795,1545,100.4652405,1545,100.8139877,1545,100.9373093,1545,100.9818802,1545,101.0694962,1545,101.0818024,1545,101.108078,1545,101.1286163,1545,101.1693802,
1535,11.05467129,1535,99.58538055,1535,99.31416321,1535,99.08854675,1535,99.0668869,1535,99.08081055,1535,99.1145401,1535,99.16173553,1535,99.195961,1535,99.20252228,1535,99.24993896,1535,99.27416992,1535,99.3059845,1535,99.35276031,1535,99.40654755,1535,99.45886993,1535,99.48077393,1535,99.91372681,1535,99.91731262,1535,99.94003296,1535,99.99771118,1535,100.0679703,1535,52.90461349,1535,52.93444824,1535,52.95200348,1535,52.98356247,1535,52.9874382,1535,11.12152767,1535,100.0595779,,,1535,100.1169815,1535,87.63858032,1535,51.2254715,1535,50.38703537,1535,50.91275406,1535,51.66130066,1535,52.06705475,1535,52.07606506,1535,56.66262054,1535,53.25039673,1535,53.21290588,1535,53.21080017,1535,53.12569809,1535,53.2165451,1535,53.27155685,1535,53.29813385,1535,53.31381607,1535,53.348629,1535,53.40781403,1535,53.43664932,1535,51.21687698,1535,49.13679123,1535,100.4536591,1535,100.807663,1535,100.9458542,1535,100.9803314,1535,101.0693283,1535,101.1036301,1535,101.1204605,1535,101.1299133,1535,101.1672134,
1525,11.33186913,1525,99.57021332,1525,99.28339386,1525,99.0971756,1525,99.051651,1525,99.06546783,1525,99.10585022,1525,99.14839172,1525,99.1892395,1525,99.18819427,1525,99.23646545,1525,99.26091003,1525,99.28465271,1525,99.32563019,1525,99.37773895,1525,99.44702911,1525,99.46411133,1525,99.90169525,1525,99.90493774,1525,99.93870544,1525,99.97955322,1525,100.0089874,1525,52.88826752,1525,52.91643143,1525,52.95119476,1525,52.95251083,1525,52.98133087,1525,11.40064716,1525,100.0477295,,,1525,100.102211,1525,87.5838623,1525,51.14215469,1525,50.36373901,1525,50.85974503,1525,51.59622955,1525,52.06193161,1525,52.05806351,1525,56.63531494,1525,53.22710419,1525,53.18395615,1525,53.18101501,1525,53.07837677,1525,53.19750977,1525,53.255867,1525,53.27467346,1525,53.31602859,1525,53.33750153,1525,53.3794632,1525,53.40943909,1525,51.18864822,1525,49.11265182,1525,100.4379654,1525,100.7908936,1525,100.9120026,1525,100.9515533,1525,101.0427856,1525,101.0671158,1525,101.081131,1525,101.0981445,1525,101.129509,
1515,11.60928345,1515,99.58982086,1515,99.28312683,1515,99.09178925,1515,99.07241821,1515,99.07248688,1515,99.11061096,1515,99.14868164,1515,99.18817139,1515,99.19643402,1515,99.24819183,1515,99.25640106,1515,99.30427551,1515,99.33200836,1515,99.38131714,1515,99.42324066,1515,99.4608078,1515,99.90265656,1515,99.91378021,1515,99.94116211,1515,99.96924591,1515,100.0080948,1515,52.87665558,1515,52.89286423,1515,52.91817856,1515,52.93813324,1515,52.97472,1515,11.67768192,1515,100.0456085,,,1515,100.1130219,1515,87.62596893,1515,51.09306717,1515,50.32912064,1515,50.85583496,1515,51.62507248,1515,52.04729462,1515,52.04197693,1515,56.61815262,1515,53.21942139,1515,53.17785645,1515,53.18195724,1515,53.08007431,1515,53.1872406,1515,53.24028015,1515,53.26994705,1515,53.28546906,1515,53.32924652,1515,53.36814117,1515,53.39846039,1515,51.16770935,1515,49.0959053,1515,100.4507217,1515,100.8056412,1515,100.933197,1515,100.9697189,1515,101.0610123,1515,101.0764008,1515,101.0894165,1515,101.1088943,1515,101.1270905,
1505,11.88445568,1505,99.58959198,1505,99.25282288,1505,99.0800705,1505,99.06835175,1505,99.06180573,1505,99.11563873,1505,99.16294861,1505,99.18995667,1505,99.19410706,1505,99.23763275,1505,99.25211334,1505,99.29805756,1505,99.32290649,1505,99.38490295,1505,99.42434692,1505,99.45674133,1505,99.8912735,1505,99.89493561,1505,99.93344879,1505,99.97116089,1505,99.99720001,1505,52.84634781,1505,52.87956619,1505,52.91379166,1505,52.92914581,1505,52.94274139,1505,11.95569324,1505,100.0388489,,,1505,100.1050262,1505,87.61497498,1505,51.05496216,1505,50.24401093,1505,50.81978989,1505,51.58377457,1505,52.00787735,1505,52.00105286,1505,56.57052231,1505,53.19454193,1505,53.15564346,1505,53.14229202,1505,53.05373001,1505,53.16432571,1505,53.22509003,1505,53.25048447,1505,53.26975632,1505,53.29715729,1505,53.34500504,1505,53.37162781,1505,51.12677765,1505,49.09059525,1505,100.4281769,1505,100.7884827,1505,100.9130859,1505,100.9456177,1505,101.024971,1505,101.0686264,1505,101.068306,1505,101.0872574,1505,101.1090775,
1495,12.14723969,1495,99.57437134,1495,99.23383331,1495,99.05793762,1495,99.05502319,1495,99.0437851,1495,99.09965515,1495,99.14748383,1495,99.18151855,1495,99.19293213,1495,99.23526764,1495,99.24276733,1495,99.27985382,1495,99.31503296,1495,99.36630249,1495,99.41098022,1495,99.43753815,1495,99.85769653,1495,99.85894012,1495,99.91947174,1495,99.94589996,1495,99.99252319,1495,52.83325958,1495,52.85571289,1495,52.88119888,1495,52.91088104,1495,52.92041397,1495,12.21556664,1495,100.0514755,,,1495,100.1013412,1495,87.6254425,1495,50.99588013,1495,50.20230484,1495,50.80587769,1495,51.54880905,1495,51.9686203,1495,51.98828125,1495,56.53617859,1495,53.19430161,1495,53.14545441,1495,53.14427567,1495,53.03671265,1495,53.14048386,1495,53.22198868,1495,53.22172546,1495,53.26290894,1495,53.29662704,1495,53.32977676,1495,53.35836411,1495,51.11035156,1495,49.07601929,1495,100.4263382,1495,100.7835007,1495,100.9087448,1495,100.9585876,1495,101.0444489,1495,101.0529785,1495,101.0721893,1495,101.100769,1495,101.1058197,
1485,12.38554001,1485,99.57080078,1485,99.2124939,1485,99.039505,1485,99.03213501,1485,99.03729248,1485,99.07689667,1485,99.11715698,1485,99.16611481,1485,99.15304565,1485,99.18219757,1485,99.21199799,1485,99.24982452,1485,99.2766037,1485,99.34187317,1485,99.38595581,1485,99.39876556,1485,99.81575012,1485,99.7993927,1485,99.85531616,1485,99.88752747,1485,99.9302063,1485,52.78962708,1485,52.81958008,1485,52.84100342,1485,52.87191391,1485,52.87513733,1485,12.44794846,1485,100.0562057,,,1485,100.1084213,1485,87.62096405,1485,50.92368317,1485,50.17814636,1485,50.77129745,1485,51.48019791,1485,51.94287109,1485,51.93753052,1485,56.49040222,1485,53.17485809,1485,53.13395691,1485,53.12308502,1485,53.01942062,1485,53.1256485,1485,53.17611694,1485,53.22153091,1485,53.24385834,1485,53.27607346,1485,53.31827545,1485,53.34989548,1485,51.08483505,1485,49.05249023,1485,100.4252777,1485,100.7815399,1485,100.9097672,1485,100.9489212,1485,101.025177,1485,101.0487518,1485,101.0721817,1485,101.1103897,1485,101.1028671,
1475,12.63733101,1475,99.57827759,1475,99.20230103,1475,99.03659821,1475,99.02523041,1475,99.02401733,1475,99.07509613,1475,99.109375,1475,99.14270782,1475,99.1422348,1475,99.16607666,1475,99.19629669,1475,99.22594452,1475,99.26316833,1475,99.32775879,1475,99.35369873,1475,99.37242889,1475,99.76531982,1475,99.74594116,1475,99.79730988,1475,99.83098602,1475,99.88021088,1475,52.7439537,1475,52.78071213,1475,52.79785919,1475,52.82971191,1475,52.82995224,1475,12.69311047,1475,100.0504608,,,1475,100.1363602,1475,87.62750244,1475,50.9302063,1475,50.10129166,1475,50.74436569,1475,51.40743256,1475,51.89207077,1475,51.90073395,1475,56.45365906,1475,53.15055847,1475,53.11917114,1475,53.10927582,1475,53.01091003,1475,53.10071564,1475,53.17547226,1475,53.19503403,1475,53.23060608,1475,53.27042389,1475,53.29478836,1475,53.33533859,1475,51.05611038,1475,49.0533905,1475,100.4228439,1475,100.7742157,1475,100.9183426,1475,100.9556503,1475,101.0165482,1475,101.0531311,1475,101.0538483,1475,101.0907135,1475,101.1031647,
1465,12.84951973,1465,99.54010773,1465,99.17952728,1465,99.00999451,1465,99.0045929,1465,98.99694061,1465,99.04450989,1465,99.10036469,1465,99.12067413,1465,99.123909,1465,99.15015411,1465,99.17632294,1465,99.20022583,1465,99.2387085,1465,99.30216217,1465,99.32822418,1465,99.35691833,1465,99.71842194,1465,99.75110626,1465,99.76685333,1465,99.81134796,1465,99.85159302,1465,52.71409225,1465,52.75245285,1465,52.76066208,1465,52.81195831,1465,52.79621506,1465,12.90351105,1465,100.0440216,,,1465,100.1133652,1465,87.61604309,1465,50.80962372,1465,50.07875061,1465,50.74117661,1465,51.38246918,1465,51.85561371,1465,51.8544426,1465,56.36995316,1465,53.14368057,1465,53.10023499,1465,53.09754181,1465,52.97235107,1465,53.08600235,1465,53.14568329,1465,53.20004654,1465,53.21163559,1465,53.23843384,1465,53.27511597,1465,53.32107544,1465,51.02160645,1465,49.0544014,1465,100.4042664,1465,100.7662888,1465,100.9005051,1465,100.9548416,1465,101.0030899,1465,101.026535,1465,101.0605545,1465,101.0687332,1465,101.0830612,
1455,13.12172699,1455,99.56216431,1455,99.19843292,1455,99.02091217,1455,99.02339935,1455,99.00856781,1455,99.0762558,1455,99.12597656,1455,99.14159393,1455,99.14478302,1455,99.19391632,1455,99.20793915,1455,99.23219299,1455,99.28354645,1455,99.32621765,1455,99.37361145,1455,99.41210938,1455,99.79718781,1455,99.84188843,1455,99.86368561,1455,99.88761139,1455,99.92542267,1455,52.74786377,1455,52.79049683,1455,52.79840088,1455,52.84418488,1455,52.83745575,1455,13.18774796,1455,100.0479126,,,1455,100.1016846,1455,87.59549713,1455,50.81775284,1455,49.9463501,1455,50.73723221,1455,51.31500244,1455,51.79039764,1455,51.81549072,1455,56.32441711,1455,53.12992477,1455,53.08398438,1455,53.06769562,1455,52.97688293,1455,53.08398438,1455,53.15127945,1455,53.17663574,1455,53.19763565,1455,53.21935272,1455,53.27598572,1455,53.32509232,1455,51.00930786,1455,49.05470657,1455,100.4305038,1455,100.7960892,1455,100.9203796,1455,100.9591675,1455,101.0423203,1455,101.0549088,1455,101.0799789,1455,101.0941162,1455,101.1126862,
1445,13.06675053,1445,99.52168274,1445,99.13509369,1445,98.96056366,1445,98.95748901,1445,98.96389008,1445,99.00540161,1445,99.0380249,1445,99.05441284,1445,99.06993866,1445,99.08739471,1445,99.10835266,1445,99.13070679,1445,99.17791748,1445,99.22421265,1445,99.2689209,1445,99.30267334,1445,99.57906342,1445,99.60894012,1445,99.66012573,1445,99.67551422,1445,99.72657013,1445,52.64037323,1445,52.67723083,1445,52.68868256,1445,52.72048569,1445,52.72217941,1445,13.10972881,1445,100.0428696,,,1445,100.0812912,1445,87.5708847,1445,50.73599243,1445,49.95365524,1445,50.6880455,1445,51.20656967,1445,51.73242188,1445,51.77276611,1445,56.23218536,1445,53.10419846,1445,53.0755043,1445,53.07065964,1445,52.97422409,1445,53.05976868,1445,53.14156342,1445,53.16830826,1445,53.18015671,1445,53.21667862,1445,53.26032639,1445,53.30486298,1445,50.98346329,1445,49.04652405,1445,100.4284973,1445,100.7875443,1445,100.9174347,1445,100.9580765,1445,101.0430069,1445,101.0714264,1445,101.0793304,1445,101.0920639,1445,101.1144867,
1435,13.4727869,1435,99.53620148,1435,99.15759277,1435,98.97440338,1435,98.98587036,1435,98.99040222,1435,99.03125,1435,99.07719421,1435,99.09409332,1435,99.09603119,1435,99.12982178,1435,99.1529007,1435,99.166008,1435,99.22541046,1435,99.2660675,1435,99.31108093,1435,99.35947418,1435,99.67460632,1435,99.69680023,1435,99.72720337,1435,99.75563812,1435,99.79360962,1435,52.65921402,1435,52.67218399,1435,52.69687271,1435,52.73858261,1435,52.73735046,1435,13.52101994,1435,100.0546951,,,1435,100.1093521,1435,87.6058197,1435,50.71430206,1435,49.81893158,1435,50.7158165,1435,51.17216873,1435,51.68616867,1435,51.75556564,1435,56.1950264,1435,53.10084152,1435,53.06392288,1435,53.03527069,1435,52.94616318,1435,53.04801941,1435,53.14469147,1435,53.13941956,1435,53.18574142,1435,53.18957138,1435,53.24034882,1435,53.29921341,1435,50.94874954,1435,49.03837967,1435,100.4101028,1435,100.7940903,1435,100.9039764,1435,100.9444275,1435,101.0034561,1435,101.0260086,1435,101.0652924,1435,101.071907,1435,101.0786057,
1425,13.61714554,1425,99.52944946,1425,99.15309906,1425,98.98957825,1425,98.96642303,1425,98.98210907,1425,99.01804352,1425,99.05442047,1425,99.07997131,1425,99.09241486,1425,99.1205368,1425,99.13733673,1425,99.19260406,1425,99.19565582,1425,99.2792511,1425,99.31214142,1425,99.34688568,1425,99.69971466,1425,99.70272064,1425,99.75880432,1425,99.78247833,1425,99.82982635,1425,52.67127228,1425,52.68830109,1425,52.71115112,1425,52.75141525,1425,52.74503326,1425,13.6751194,1425,100.0440216,,,1425,100.0715408,1425,87.56562042,1425,50.61262131,1425,49.81172943,1425,50.679039,1425,51.1125145,1425,51.65880966,1425,51.72065353,1425,56.11401367,1425,53.07188797,1425,53.05110168,1425,53.03045654,1425,52.91540527,1425,53.02466202,1425,53.09377289,1425,53.10486603,1425,53.12970734,1425,53.19239044,1425,53.22641754,1425,53.25548172,1425,50.91485214,1425,49.0136261,1425,100.401947,1425,100.7470245,1425,100.8900986,1425,100.9384995,1425,101.0097351,1425,101.057518,1425,101.0630646,1425,101.0666122,1425,101.0919189,
1415,13.48223114,1415,99.51109314,1415,99.13865662,1415,98.99887085,1415,98.94199371,1415,98.97678375,1415,99.03777313,1415,99.01495361,1415,99.10778046,1415,99.05265808,1415,99.05383301,1415,99.13500214,1415,99.26374054,1415,99.12226105,1415,99.32583618,1415,99.33960724,1415,99.27944183,1415,99.730896,1415,99.65113831,1415,99.8035202,1415,99.82330322,1415,99.87783813,1415,52.704216,1415,52.72504807,1415,52.75187683,1415,52.77022552,1415,52.76049805,1415,13.555583,1415,100.0501175,,,1415,100.0292892,1415,87.42788696,1415,50.51271439,1415,49.76249313,1415,50.62717056,1415,50.97121048,1415,51.59830475,1415,51.6771965,1415,55.99915314,1415,53.05371857,1415,53.0123291,1415,53.01476669,1415,52.872612,1415,52.97412872,1415,53.03445435,1415,53.07216644,1415,53.09839249,1415,53.17579651,1415,53.18605423,1415,53.1885376,1415,50.84441376,1415,49.13764954,1415,100.3775864,1415,100.6506424,1415,100.8496399,1415,100.8712769,1415,100.971756,1415,101.0527954,1415,100.9902725,1415,101.0373917,1415,101.0366898,
1405,12.84206772,1405,99.48828888,1405,99.05584717,1405,98.89148712,1405,98.91728973,1405,98.86269379,1405,98.91056061,1405,98.92341614,1405,98.97424316,1405,98.9553299,1405,98.92547607,1405,98.9925766,1405,99.06237793,1405,99.00236511,1405,99.13846588,1405,99.15487671,1405,99.10375214,1405,99.3238678,1405,99.26898193,1405,99.41321564,1405,99.44979095,1405,99.503479,1405,52.47988892,1405,52.49981689,1405,52.52246857,1405,52.54504013,1405,52.55783081,1405,12.86002731,1405,100.026474,,,1405,100.0154648,1405,87.40532684,1405,50.54393387,1405,49.73368835,1405,50.63552094,1405,50.90762329,1405,51.55813217,1405,51.6699791,1405,55.96792221,1405,53.05821228,1405,52.98698425,1405,52.97077179,1405,52.85218811,1405,53.00481796,1405,53.0673027,1405,52.98278427,1405,53.05896378,1405,53.15731049,1405,53.17679596,1405,53.19194031,1405,50.82341003,1405,49.08911896,1405,100.3436127,1405,100.6684875,1405,100.8417816,1405,100.8606415,1405,100.9320374,1405,100.9693527,1405,100.9792557,1405,101.0043488,1405,101.009491,
1395,12.08991146,1395,99.42246246,1395,98.93984222,1395,98.75324249,1395,98.73833466,1395,98.71552277,1395,98.75751495,1395,98.7682724,1395,98.7884903,1395,98.7800827,1395,98.77511597,1395,98.79502106,1395,98.8105545,1395,98.82618713,1395,98.88425446,1395,98.89194489,1395,98.89572144,1395,98.84281921,1395,98.83565521,1395,98.92863464,1395,98.9703064,1395,99.01737976,1395,52.23776627,1395,52.26504135,1395,52.29005051,1395,52.31796646,1395,52.31779861,1395,12.05513,1395,99.99835205,,,1395,100.0148544,1395,87.44125366,1395,50.47557449,1395,49.79659653,1395,50.56938553,1395,50.89916611,1395,51.54036713,1395,51.63267136,1395,55.96965027,1395,52.9870224,1395,52.96825027,1395,52.95140076,1395,52.84079742,1395,52.96912766,1395,52.95572281,1395,53.17133713,1395,53.12642288,1395,53.16320038,1395,53.18206024,1395,53.22234726,1395,50.82893372,1395,48.98743057,1395,100.3549347,1395,100.7033615,1395,100.8627319,1395,100.8875351,1395,100.9308929,1395,100.9497757,1395,100.9698486,1395,100.9894257,1395,100.9983063,
1385,12.64741993,1385,99.53697968,1385,99.0954895,1385,98.95496368,1385,98.91954803,1385,98.8771286,1385,98.97212982,1385,98.972435,1385,99.02132416,1385,98.99628448,1385,98.91309357,1385,99.02088165,1385,99.06043243,1385,99.04203033,1385,99.20078278,1385,99.15693665,1385,99.12240601,1385,99.31243896,1385,99.26800537,1385,99.40075684,1385,99.44734192,1385,99.48212433,1385,52.44353485,1385,52.46927643,1385,52.48833847,1385,52.51848602,1385,52.51382446,1385,12.66728783,1385,100.0352249,,,1385,100.0251541,1385,87.30064392,1385,50.33934021,1385,49.66139984,1385,50.57562637,1385,50.76979828,1385,51.52193832,1385,51.57229996,1385,55.87282181,1385,52.99540329,1385,52.96240616,1385,52.96461105,1385,52.8015976,1385,52.90483093,1385,52.93804932,1385,53.08198166,1385,53.08414078,1385,53.12987137,1385,53.11786652,1385,53.16756439,1385,50.74436569,1385,49.16842651,1385,100.3185501,1385,100.6429901,1385,100.8432388,1385,100.8417969,1385,100.8733292,1385,100.9529572,1385,100.9725571,1385,100.992218,1385,101.0057602,
1375,12.95854187,1375,99.4513092,1375,99.01380157,1375,98.8086319,1375,98.81062317,1375,98.81828308,1375,98.8188324,1375,98.86200714,1375,98.87934113,1375,98.87852478,1375,98.93143463,1375,98.91390991,1375,98.94586945,1375,98.97512054,1375,99.00492096,1375,99.0591507,1375,99.08623505,1375,99.19968414,1375,99.22740936,1375,99.27791595,1375,99.29320526,1375,99.33323669,1375,52.3587532,1375,52.38551331,1375,52.40631104,1375,52.42459106,1375,52.4507637,1375,12.95565796,1375,99.98162079,,,1375,100.0222473,1375,87.49943542,1375,50.30634308,1375,49.51924133,1375,50.63732147,1375,50.75838089,1375,51.52599716,1375,51.57065582,1375,55.84446335,1375,52.99214172,1375,52.94737244,1375,52.93746185,1375,52.84404755,1375,52.97019958,1375,52.99939346,1375,53.04285812,1375,53.05812836,1375,53.09191513,1375,53.14841461,1375,53.18046951,1375,50.76493454,1375,48.91358185,1375,100.3583908,1375,100.7330627,1375,100.8450012,1375,100.879715,1375,100.9493942,1375,100.9661102,1375,100.9824524,1375,100.9914627,1375,101.0093536,
1365,11.72479439,1365,99.59958649,1365,99.12931061,1365,99.03501892,1365,99.00279236,1365,98.93115997,1365,99.07699585,1365,99.07284546,1365,99.04257965,1365,99.09899139,1365,99.04160309,1365,99.08579254,1365,99.03447723,1365,99.20891571,1365,99.22772217,1365,99.1865921,1365,99.26789856,1365,99.36187744,1365,99.41487885,1365,99.47238922,1365,99.54281616,1365,99.60949707,1365,52.47731781,1365,52.50726318,1365,52.53648758,1365,52.59047318,1365,52.5854187,1365,11.76381969,1365,100.0014877,,,1365,100.0268784,1365,87.17552185,1365,50.29987717,1365,49.66060638,1365,50.57112122,1365,50.61842346,1365,51.41978455,1365,51.48791122,1365,55.72278976,1365,52.97291183,1365,52.92740631,1365,52.87836838,1365,52.77766418,1365,52.90819931,1365,53.00292206,1365,53.09494781,1365,53.11431885,1365,53.14583206,1365,53.12160873,1365,53.21585464,1365,50.73025894,1365,49.28286362,1365,100.2987823,1365,100.768074,1365,100.911438,1365,100.9449158,1365,101.0017776,1365,100.9440918,1365,101.0488968,1365,101.0833359,1365,101.0552521,
1355,12.46116352,1355,99.36211395,1355,98.87508392,1355,98.6740036,1355,98.63379669,1355,98.64437866,1355,98.61734009,1355,98.66104889,1355,98.69161224,1355,98.64993286,1355,98.69709015,1355,98.66838074,1355,98.74913788,1355,98.66012573,1355,98.7603302,1355,98.79360199,1355,98.77334595,1355,98.71781158,1355,98.69792938,1355,98.75512695,1355,98.7848053,1355,98.80779266,1355,52.07855225,1355,52.10892105,1355,52.13037109,1355,52.16795731,1355,52.17103958,1355,12.39619732,1355,99.98059845,,,1355,100.0084381,1355,87.42608643,1355,50.27013397,1355,49.35664749,1355,50.58603287,1355,50.74963379,1355,51.45352936,1355,51.53636169,1355,55.64061356,1355,52.95602036,1355,52.9300499,1355,52.92333984,1355,52.8028183,1355,52.87783051,1355,52.89599991,1355,53.08973312,1355,53.00109482,1355,53.06304169,1355,53.11997604,1355,53.12725449,1355,50.69261932,1355,48.93465805,1355,100.3502045,1355,100.6706848,1355,100.8123245,1355,100.8634567,1355,100.8845901,1355,100.9194031,1355,100.9223709,1355,100.9218445,1355,100.9536057,
1345,14.42372799,1345,99.55335999,1345,99.11038971,1345,98.95903015,1345,98.9367981,1345,98.94080353,1345,98.96884155,1345,99.00205994,1345,99.04991913,1345,99.03659058,1345,99.09761047,1345,99.09300995,1345,99.15001678,1345,99.15260315,1345,99.22603607,1345,99.26275635,1345,99.28587341,1345,99.63603973,1345,99.63108826,1345,99.68505096,1345,99.70144653,1345,99.73348999,1345,52.51660919,1345,52.52872849,1345,52.56364822,1345,52.57899857,1345,52.59519958,1345,14.47520542,1345,99.99958038,,,1345,100.0409012,1345,87.48653412,1345,50.08044434,1345,49.36830521,1345,50.57052994,1345,50.67433548,1345,51.44654465,1345,51.43164444,1345,55.54237366,1345,52.92092133,1345,52.89676285,1345,52.89511871,1345,52.75744247,1345,52.86938095,1345,52.95064545,1345,52.97709656,1345,52.99827576,1345,53.02716064,1345,53.07082367,1345,53.10391235,1345,50.65670013,1345,48.85124969,1345,100.3405609,1345,100.6913757,1345,100.8386002,1345,100.8741608,1345,100.925621,1345,100.9653244,1345,100.9587402,1345,100.9803162,1345,101.0048981,
1335,14.76247501,1335,99.53888702,1335,99.12740326,1335,98.95703125,1335,98.98212433,1335,98.95565796,1335,99.00065613,1335,99.04040527,1335,99.07053375,1335,99.07688904,1335,99.11779022,1335,99.12447357,1335,99.17037201,1335,99.20131683,1335,99.26699829,1335,99.30155945,1335,99.32821655,1335,99.71928406,1335,99.71759033,1335,99.77068329,1335,99.80527496,1335,99.83525848,1335,52.54359818,1335,52.56477737,1335,52.59560394,1335,52.60490036,1335,52.61306,1335,14.83094692,1335,99.98883057,,,1335,100.0344772,1335,87.45685577,1335,50.01164246,1335,49.30745697,1335,50.53451157,1335,50.64080429,1335,51.37292099,1335,51.37322617,1335,55.46168518,1335,52.90366364,1335,52.86436844,1335,52.86420059,1335,52.72108841,1335,52.85758209,1335,52.92684937,1335,52.95665359,1335,52.98233032,1335,53.00179672,1335,53.05627441,1335,53.08983994,1335,50.618927,1335,48.84658432,1335,100.328804,1335,100.6865616,1335,100.8259048,1335,100.8640518,1335,100.9366302,1335,100.9532089,1335,100.9723511,1335,100.9796829,1335,100.9960556,
1325,14.8810463,1325,99.54514313,1325,99.13271332,1325,98.97402191,1325,99.0238266,1325,98.96947479,1325,99.02133942,1325,99.05550385,1325,99.09308624,1325,99.10111237,1325,99.13355255,1325,99.14858246,1325,99.18269348,1325,99.23473358,1325,99.28072357,1325,99.32172394,1325,99.35440826,1325,99.7571106,1325,99.7693634,1325,99.81576538,1325,99.84051514,1325,99.87730408,1325,52.54771042,1325,52.57027817,1325,52.59594727,1325,52.61896896,1325,52.63294983,1325,14.95803165,1325,99.97412109,,,1325,100.0347595,1325,87.42463684,1325,49.93052673,1325,49.22595978,1325,50.50796127,1325,50.62407303,1325,51.31615829,1325,51.32322311,1325,55.3811264,1325,52.86714554,1325,52.83344269,1325,52.82817078,1325,52.69379425,1325,52.82444763,1325,52.89868164,1325,52.93525314,1325,52.96623611,1325,52.9785347,1325,53.01992798,1325,53.0545845,1325,50.58488083,1325,48.84836197,1325,100.3232346,1325,100.6891632,1325,100.8212357,1325,100.852356,1325,100.9232025,1325,100.9479752,1325,100.9803085,1325,100.9815216,1325,100.9980469,
1315,14.66395855,1315,99.56900024,1315,99.17014313,1315,98.97660065,1315,99.04108429,1315,98.98350525,1315,99.02573395,1315,99.07305145,1315,99.09744263,1315,99.11813354,1315,99.15106964,1315,99.16117859,1315,99.19760895,1315,99.2570343,1315,99.3038559,1315,99.34379578,1315,99.37724304,1315,99.7645874,1315,99.80213165,1315,99.83211517,1315,99.85865021,1315,99.89849091,1315,52.54702759,1315,52.56797791,1315,52.59926987,1315,52.61245346,1315,52.63618851,1315,14.74262333,1315,99.97342682,,,1315,100.015152,1315,87.41654205,1315,49.86354828,1315,49.18584061,1315,50.46426773,1315,50.63105392,1315,51.27045059,1315,51.2999115,1315,55.33089066,1315,52.85398865,1315,52.82982635,1315,52.82699585,1315,52.69342041,1315,52.81302261,1315,52.90837097,1315,52.92544556,1315,52.95583725,1315,52.96681976,1315,53.02098846,1315,53.05111313,1315,50.56639481,1315,48.85411072,1315,100.3338089,1315,100.707901,1315,100.8412857,1315,100.8745575,1315,100.9466171,1315,100.9800797,1315,101.0028,1315,101.0122147,1315,101.0129929,
1305,14.48201656,1305,99.55483246,1305,99.14522552,1305,98.95667267,1305,99.00977325,1305,98.96665192,1305,99.00884247,1305,99.03160095,1305,99.06639862,1305,99.07580566,1305,99.10251617,1305,99.1230011,1305,99.14558411,1305,99.19792175,1305,99.2701416,1305,99.30406189,1305,99.32247162,1305,99.7197876,1305,99.72061157,1305,99.7725296,1305,99.80043793,1305,99.83894348,1305,52.50784683,1305,52.51411819,1305,52.5518837,1305,52.55873871,1305,52.57818222,1305,14.55096626,1305,99.97235107,,,1305,100.0323792,1305,87.44005585,1305,49.79027176,1305,49.11951065,1305,50.45695877,1305,50.60584641,1305,51.21651459,1305,51.27388382,1305,55.27838898,1305,52.84772491,1305,52.80647278,1305,52.80285645,1305,52.66101837,1305,52.78722763,1305,52.88461304,1305,52.89673615,1305,52.92303085,1305,52.94868851,1305,52.9832077,1305,53.01972198,1305,50.52846527,1305,48.78065872,1305,100.3110428,1305,100.6784897,1305,100.8208771,1305,100.8494644,1305,100.9193192,1305,100.9527664,1305,100.9707336,1305,100.9924088,1305,100.994339,
1295,14.70199966,1295,99.55086517,1295,99.13519287,1295,98.95010376,1295,99.01760101,1295,98.96250153,1295,99.0151062,1295,99.03805542,1295,99.06998444,1295,99.08102417,1295,99.11662292,1295,99.14772797,1295,99.15856171,1295,99.20936584,1295,99.25540924,1295,99.29839325,1295,99.3445282,1295,99.72641754,1295,99.73491669,1295,99.78475952,1295,99.80480194,1295,99.84915161,1295,52.49240875,1295,52.5098381,1295,52.53498077,1295,52.54331207,1295,52.56250381,1295,14.7732811,1295,99.97104645,,,1295,100.0175323,1295,87.41783905,1295,49.71668625,1295,49.04945755,1295,50.42103958,1295,50.58093262,1295,51.15330124,1295,51.24257278,1295,55.17128754,1295,52.81571198,1295,52.78301239,1295,52.78593826,1295,52.63515854,1295,52.76386261,1295,52.8536911,1295,52.87381363,1295,52.89522552,1295,52.92697144,1295,52.96658325,1295,53.00370407,1295,50.49364471,1295,48.77846909,1295,100.3206711,1295,100.684761,1295,100.8172989,1295,100.8508911,1295,100.918457,1295,100.9422913,1295,100.9742126,1295,100.98423,1295,101.0010681,
1285,14.85467148,1285,99.54478455,1285,99.06764984,1285,98.94412994,1285,99.01161957,1285,98.9532547,1285,99.00034332,1285,99.02206421,1285,99.06040192,1285,99.06825256,1285,99.09870148,1285,99.14388275,1285,99.14866638,1285,99.1969223,1285,99.24451447,1285,99.29568481,1285,99.32165527,1285,99.72331238,1285,99.72167969,1285,99.76513672,1285,99.79494476,1285,99.82990265,1285,52.47107697,1285,52.48148346,1285,52.50446701,1285,52.52451324,1285,52.54455948,1285,14.92568684,1285,99.9740448,,,1285,100.0218277,1285,87.40099335,1285,49.62041092,1285,49.0078125,1285,50.34583282,1285,50.56464767,1285,51.11502838,1285,51.20608139,1285,55.05709839,1285,52.79473114,1285,52.76282883,1285,52.75765228,1285,52.61672211,1285,52.75029373,1285,52.82775116,1285,52.85660553,1285,52.90216064,1285,52.90559387,1285,52.94232941,1285,52.98557281,1285,50.46459579,1285,48.75531006,1285,100.3206024,1285,100.6836548,1285,100.809494,1285,100.8585815,1285,100.9202728,1285,100.9550323,1285,100.974823,1285,100.9768524,1285,100.9861374,
1275,14.97774315,1275,99.55477905,1275,99.06967926,1275,98.93475342,1275,99.00004578,1275,98.95187378,1275,98.99333954,1275,99.01816559,1275,99.05222321,1275,99.05617523,1275,99.10455322,1275,99.14472961,1275,99.1387558,1275,99.19080353,1275,99.24318695,1275,99.28279877,1275,99.31445313,1275,99.70644379,1275,99.72244263,1275,99.76444244,1275,99.80122375,1275,99.83848572,1275,52.4409523,1275,52.46429443,1275,52.48845673,1275,52.50629044,1275,52.51932144,1275,15.04817009,1275,99.9671936,,,1275,100.0045319,1275,87.38493347,1275,49.55442429,1275,48.9416008,1275,50.28178787,1275,50.54282379,1275,51.06747055,1275,51.14905167,1275,54.93155289,1275,52.7726593,1275,52.73823547,1275,52.74465179,1275,52.59496689,1275,52.72081375,1275,52.8132515,1275,52.84220505,1275,52.85624695,1275,52.88228989,1275,52.92185593,1275,52.95798111,1275,50.42991638,1275,48.74029922,1275,100.310257,1275,100.6894455,1275,100.8215942,1275,100.8552094,1275,100.9202805,1275,100.933136,1275,100.9731064,1275,100.9743958,1275,100.9966354,
1265,15.0781517,1265,99.5344696,1265,99.04299927,1265,98.92906952,1265,98.95193481,1265,98.92276764,1265,98.97719574,1265,98.99718475,1265,99.03227997,1265,99.04519653,1265,99.08674622,1265,99.11916351,1265,99.12874603,1265,99.17504883,1265,99.22247314,1265,99.26182556,1265,99.29741669,1265,99.69099426,1265,99.69431305,1265,99.73649597,1265,99.78282928,1265,99.80400848,1265,52.42020416,1265,52.43327713,1265,52.46272659,1265,52.47976303,1265,52.4958725,1265,15.13805676,1265,100.0209961,,,1265,100.0614853,1265,87.4245224,1265,49.49417877,1265,48.92189407,1265,50.22827911,1265,50.51908493,1265,51.0462532,1265,51.13034058,1265,54.84512329,1265,52.77600861,1265,52.73726654,1265,52.74727249,1265,52.60830688,1265,52.72371292,1265,52.81685638,1265,52.84676361,1265,52.85902023,1265,52.88544846,1265,52.92389297,1265,52.96852112,1265,50.41257095,1265,48.73669815,1265,100.3694687,1265,100.7300415,1265,100.8750458,1265,100.8978577,1265,100.9709244,1265,101.0014191,1265,101.0243073,1265,101.0392456,1265,101.0437012,
1255,15.15815449,1255,99.52237701,1255,99.02890015,1255,98.91976929,1255,98.93431854,1255,98.9143219,1255,98.95309448,1255,98.98874664,1255,99.01867676,1255,99.03562927,1255,99.07350159,1255,99.10726929,1255,99.10627747,1255,99.15518188,1255,99.20118713,1255,99.24614716,1255,99.27754974,1255,99.67056274,1255,99.68778229,1255,99.73815918,1255,99.76184082,1255,99.7859726,1255,52.38605118,1255,52.40209579,1255,52.43127441,1255,52.44232559,1255,52.46217728,1255,15.21295452,1255,100.0410461,,,1255,100.0698318,1255,87.42776489,1255,49.4223175,1255,48.85556793,1255,50.16495514,1255,50.48953247,1255,51.03465271,1255,51.0812645,1255,54.74476624,1255,52.7553215,1255,52.72502136,1255,52.73190308,1255,52.58872986,1255,52.71103287,1255,52.8004837,1255,52.82686996,1255,52.84686279,1255,52.87300873,1255,52.90900421,1255,52.95166397,1255,50.38656616,1255,48.7376976,1255,100.3837967,1255,100.7428665,1255,100.8875046,1255,100.9156342,1255,100.9911041,1255,101.0137405,1255,101.0494385,1255,101.0463867,1255,101.0601654,

Baseline 100%T,
Baseline 100%T
Collection Time: 2/6/2015 1:45:42 PM
Operator Name  :
Scan Software Version: 3.00(182)
Parameter List :
Instrument                        Cary 5000
Instrument Version                1.09
Start (nm)                        1775.00
Stop (nm)                         1250.00
X Mode                            Nanometers
Y Mode                            %T
UV-Vis Data Interval (nm)         10.000
UV-Vis Ave. Time (sec)            0.100
UV-Vis SBW (nm)                   2.000
UV-Vis Energy                     1.00
Slit Height                       Full
Beam Mode                         Single front
Signal-to-noise Mode              Off
UV Source                         Off
Vis Source                        On
Third Source                      Off
Source Changeover (nm)            350.00
Detector Changeover (nm)          800.00
Grating Changeover (nm)           800.00
Baseline Correction               On
Baseline Type                     Baseline correction
Baseline File Name
Baseline Std Ref File Name
Cycle Mode                        Off
Comments
Method Log     :
Method Name    : Default
Date/Time stamp: 2/6/2015 1:39:01 PM
Method Modifications:
Y mode Changed: 2/6/2015 1:43:58 PM, Old:Abs, New:%T
Baseline Correction Changed: 2/6/2015 1:43:58 PM, Old:0, New:1
Sipper Type Changed: 2/6/2015 1:43:58 PM, Old:Internal RSA, New:External sipper
End Method Modifications
<SBW (nm)> , 2.00
<Energy> , 3.00
<Slit height> , Full
<Current Wavelength> , 1250.00

empty_1,
empty_1
Collection Time: 2/6/2015 1:48:36 PM
Operator Name  :
Scan Software Version: 3.00(182)
Parameter List :
Instrument                        Cary 5000
Instrument Version                1.09
Start (nm)                        1775.00
Stop (nm)                         1250.00
X Mode                            Nanometers
Y Mode                            %T
UV-Vis Data Interval (nm)         10.000
UV-Vis Ave. Time (sec)            0.100
UV-Vis SBW (nm)                   2.000
UV-Vis Energy                     1.00
Slit Height                       Full
Beam Mode                         Single front
Signal-to-noise Mode              Off
UV Source                         Off
Vis Source                        On
Third Source                      Off
Source Changeover (nm)            350.00
Detector Changeover (nm)          800.00
Grating Changeover (nm)           800.00
Baseline Correction               On
Baseline Type                     Baseline correction
Baseline File Name
Baseline Std Ref File Name
Cycle Mode                        Off
Comments
Method Log     :
Method Name    : Default
Date/Time stamp: 2/6/2015 1:39:01 PM
Method Modifications:
Y mode Changed: 2/6/2015 1:43:58 PM, Old:Abs, New:%T
Baseline Correction Changed: 2/6/2015 1:43:58 PM, Old:0, New:1
Sipper Type Changed: 2/6/2015 1:43:58 PM, Old:Internal RSA, New:External sipper
End Method Modifications
<SBW (nm)> , 2.00
<Energy> , 3.00
<Slit height> , Full
<Current Wavelength> , 1249.00

empty_2_1,
empty_2_1
Collection Time: 2/6/2015 1:50:53 PM
Operator Name  :
Scan Software Version: 3.00(182)
Parameter List :
Instrument                        Cary 5000
Instrument Version                1.09
Start (nm)                        1775.00
Stop (nm)                         1250.00
X Mode                            Nanometers
Y Mode                            %T
UV-Vis Data Interval (nm)         10.000
UV-Vis Ave. Time (sec)            0.100
UV-Vis SBW (nm)                   2.000
UV-Vis Energy                     1.00
Slit Height                       Full
Beam Mode                         Single front
Signal-to-noise Mode              Off
UV Source                         Off
Vis Source                        On
Third Source                      Off
Source Changeover (nm)            350.00
Detector Changeover (nm)          800.00
Grating Changeover (nm)           800.00
Baseline Correction               On
Baseline Type                     Baseline correction
Baseline File Name
Baseline Std Ref File Name
Cycle Mode                        On
Cycle Count                       15
Cycle Time (min)                  1.00
Comments
Method Log     :
Method Name    : C:\Documents and Settings\CNM_2\Desktop\users\gully\20140206\20150206_Cary_2.BSW
Date/Time stamp: 2/6/2015 1:50:50 PM
Method Modifications:
Y mode Changed: 2/6/2015 1:43:58 PM, Old:Abs, New:%T
Baseline Correction Changed: 2/6/2015 1:43:58 PM, Old:0, New:1
Sipper Type Changed: 2/6/2015 1:43:58 PM, Old:Internal RSA, New:External sipper
Saved as C:\Documents and Settings\CNM_2\Desktop\users\gully\20140206\20150206_Cary_2.BSW
End Method Modifications
[Time] , 0.000
<SBW (nm)> , 2.00
<Energy> , 3.00
<Slit height> , Full
<Current Wavelength> , 1250.00
<Cycle Count> , 1
<Cycle Time> , 0:06

empty_2_2,
empty_2_2
Collection Time: 2/6/2015 1:51:57 PM
Operator Name  :
Scan Software Version: 3.00(182)
Parameter List :
Instrument                        Cary 5000
Instrument Version                1.09
Start (nm)                        1775.00
Stop (nm)                         1250.00
X Mode                            Nanometers
Y Mode                            %T
UV-Vis Data Interval (nm)         10.000
UV-Vis Ave. Time (sec)            0.100
UV-Vis SBW (nm)                   2.000
UV-Vis Energy                     1.00
Slit Height                       Full
Beam Mode                         Single front
Signal-to-noise Mode              Off
UV Source                         Off
Vis Source                        On
Third Source                      Off
Source Changeover (nm)            350.00
Detector Changeover (nm)          800.00
Grating Changeover (nm)           800.00
Baseline Correction               On
Baseline Type                     Baseline correction
Baseline File Name
Baseline Std Ref File Name
Cycle Mode                        On
Cycle Count                       15
Cycle Time (min)                  1.00
Comments
Method Log     :
Method Name    : C:\Documents and Settings\CNM_2\Desktop\users\gully\20140206\20150206_Cary_2.BSW
Date/Time stamp: 2/6/2015 1:50:50 PM
Method Modifications:
Y mode Changed: 2/6/2015 1:43:58 PM, Old:Abs, New:%T
Baseline Correction Changed: 2/6/2015 1:43:58 PM, Old:0, New:1
Sipper Type Changed: 2/6/2015 1:43:58 PM, Old:Internal RSA, New:External sipper
Saved as C:\Documents and Settings\CNM_2\Desktop\users\gully\20140206\20150206_Cary_2.BSW
End Method Modifications
[Time] , 1.009
<SBW (nm)> , 2.00
<Energy> , 3.00
<Slit height> , Full
<Current Wavelength> , 1249.00
<Cycle Count> , 2
<Cycle Time> , 0:06

empty_2_3,
empty_2_3
Collection Time: 2/6/2015 1:52:58 PM
Operator Name  :
Scan Software Version: 3.00(182)
Parameter List :
Instrument                        Cary 5000
Instrument Version                1.09
Start (nm)                        1775.00
Stop (nm)                         1250.00
X Mode                            Nanometers
Y Mode                            %T
UV-Vis Data Interval (nm)         10.000
UV-Vis Ave. Time (sec)            0.100
UV-Vis SBW (nm)                   2.000
UV-Vis Energy                     1.00
Slit Height                       Full
Beam Mode                         Single front
Signal-to-noise Mode              Off
UV Source                         Off
Vis Source                        On
Third Source                      Off
Source Changeover (nm)            350.00
Detector Changeover (nm)          800.00
Grating Changeover (nm)           800.00
Baseline Correction               On
Baseline Type                     Baseline correction
Baseline File Name
Baseline Std Ref File Name
Cycle Mode                        On
Cycle Count                       15
Cycle Time (min)                  1.00
Comments
Method Log     :
Method Name    : C:\Documents and Settings\CNM_2\Desktop\users\gully\20140206\20150206_Cary_2.BSW
Date/Time stamp: 2/6/2015 1:50:50 PM
Method Modifications:
Y mode Changed: 2/6/2015 1:43:58 PM, Old:Abs, New:%T
Baseline Correction Changed: 2/6/2015 1:43:58 PM, Old:0, New:1
Sipper Type Changed: 2/6/2015 1:43:58 PM, Old:Internal RSA, New:External sipper
Saved as C:\Documents and Settings\CNM_2\Desktop\users\gully\20140206\20150206_Cary_2.BSW
End Method Modifications
[Time] , 2.018
<SBW (nm)> , 2.00
<Energy> , 3.00
<Slit height> , Full
<Current Wavelength> , 1250.00
<Cycle Count> , 3
<Cycle Time> , 0:06

empty_2_4,
empty_2_4
Collection Time: 2/6/2015 1:53:58 PM
Operator Name  :
Scan Software Version: 3.00(182)
Parameter List :
Instrument                        Cary 5000
Instrument Version                1.09
Start (nm)                        1775.00
Stop (nm)                         1250.00
X Mode                            Nanometers
Y Mode                            %T
UV-Vis Data Interval (nm)         10.000
UV-Vis Ave. Time (sec)            0.100
UV-Vis SBW (nm)                   2.000
UV-Vis Energy                     1.00
Slit Height                       Full
Beam Mode                         Single front
Signal-to-noise Mode              Off
UV Source                         Off
Vis Source                        On
Third Source                      Off
Source Changeover (nm)            350.00
Detector Changeover (nm)          800.00
Grating Changeover (nm)           800.00
Baseline Correction               On
Baseline Type                     Baseline correction
Baseline File Name
Baseline Std Ref File Name
Cycle Mode                        On
Cycle Count                       15
Cycle Time (min)                  1.00
Comments
Method Log     :
Method Name    : C:\Documents and Settings\CNM_2\Desktop\users\gully\20140206\20150206_Cary_2.BSW
Date/Time stamp: 2/6/2015 1:50:50 PM
Method Modifications:
Y mode Changed: 2/6/2015 1:43:58 PM, Old:Abs, New:%T
Baseline Correction Changed: 2/6/2015 1:43:58 PM, Old:0, New:1
Sipper Type Changed: 2/6/2015 1:43:58 PM, Old:Internal RSA, New:External sipper
Saved as C:\Documents and Settings\CNM_2\Desktop\users\gully\20140206\20150206_Cary_2.BSW
End Method Modifications
[Time] , 3.022
<SBW (nm)> , 2.00
<Energy> , 3.00
<Slit height> , Full
<Current Wavelength> , 1250.00
<Cycle Count> , 4
<Cycle Time> , 0:06

empty_2_5,
empty_2_5
Collection Time: 2/6/2015 1:54:59 PM
Operator Name  :
Scan Software Version: 3.00(182)
Parameter List :
Instrument                        Cary 5000
Instrument Version                1.09
Start (nm)                        1775.00
Stop (nm)                         1250.00
X Mode                            Nanometers
Y Mode                            %T
UV-Vis Data Interval (nm)         10.000
UV-Vis Ave. Time (sec)            0.100
UV-Vis SBW (nm)                   2.000
UV-Vis Energy                     1.00
Slit Height                       Full
Beam Mode                         Single front
Signal-to-noise Mode              Off
UV Source                         Off
Vis Source                        On
Third Source                      Off
Source Changeover (nm)            350.00
Detector Changeover (nm)          800.00
Grating Changeover (nm)           800.00
Baseline Correction               On
Baseline Type                     Baseline correction
Baseline File Name
Baseline Std Ref File Name
Cycle Mode                        On
Cycle Count                       15
Cycle Time (min)                  1.00
Comments
Method Log     :
Method Name    : C:\Documents and Settings\CNM_2\Desktop\users\gully\20140206\20150206_Cary_2.BSW
Date/Time stamp: 2/6/2015 1:50:50 PM
Method Modifications:
Y mode Changed: 2/6/2015 1:43:58 PM, Old:Abs, New:%T
Baseline Correction Changed: 2/6/2015 1:43:58 PM, Old:0, New:1
Sipper Type Changed: 2/6/2015 1:43:58 PM, Old:Internal RSA, New:External sipper
Saved as C:\Documents and Settings\CNM_2\Desktop\users\gully\20140206\20150206_Cary_2.BSW
End Method Modifications
[Time] , 4.031
<SBW (nm)> , 2.00
<Energy> , 3.00
<Slit height> , Full
<Current Wavelength> , 1249.00
<Cycle Count> , 5
<Cycle Time> , 0:06

empty_2_6,
empty_2_6
Collection Time: 2/6/2015 1:55:59 PM
Operator Name  :
Scan Software Version: 3.00(182)
Parameter List :
Instrument                        Cary 5000
Instrument Version                1.09
Start (nm)                        1775.00
Stop (nm)                         1250.00
X Mode                            Nanometers
Y Mode                            %T
UV-Vis Data Interval (nm)         10.000
UV-Vis Ave. Time (sec)            0.100
UV-Vis SBW (nm)                   2.000
UV-Vis Energy                     1.00
Slit Height                       Full
Beam Mode                         Single front
Signal-to-noise Mode              Off
UV Source                         Off
Vis Source                        On
Third Source                      Off
Source Changeover (nm)            350.00
Detector Changeover (nm)          800.00
Grating Changeover (nm)           800.00
Baseline Correction               On
Baseline Type                     Baseline correction
Baseline File Name
Baseline Std Ref File Name
Cycle Mode                        On
Cycle Count                       15
Cycle Time (min)                  1.00
Comments
Method Log     :
Method Name    : C:\Documents and Settings\CNM_2\Desktop\users\gully\20140206\20150206_Cary_2.BSW
Date/Time stamp: 2/6/2015 1:50:50 PM
Method Modifications:
Y mode Changed: 2/6/2015 1:43:58 PM, Old:Abs, New:%T
Baseline Correction Changed: 2/6/2015 1:43:58 PM, Old:0, New:1
Sipper Type Changed: 2/6/2015 1:43:58 PM, Old:Internal RSA, New:External sipper
Saved as C:\Documents and Settings\CNM_2\Desktop\users\gully\20140206\20150206_Cary_2.BSW
End Method Modifications
[Time] , 5.040
<SBW (nm)> , 2.00
<Energy> , 3.00
<Slit height> , Full
<Current Wavelength> , 1249.00
<Cycle Count> , 6
<Cycle Time> , 0:06

empty_2_7,
empty_2_7
Collection Time: 2/6/2015 1:57:00 PM
Operator Name  :
Scan Software Version: 3.00(182)
Parameter List :
Instrument                        Cary 5000
Instrument Version                1.09
Start (nm)                        1775.00
Stop (nm)                         1250.00
X Mode                            Nanometers
Y Mode                            %T
UV-Vis Data Interval (nm)         10.000
UV-Vis Ave. Time (sec)            0.100
UV-Vis SBW (nm)                   2.000
UV-Vis Energy                     1.00
Slit Height                       Full
Beam Mode                         Single front
Signal-to-noise Mode              Off
UV Source                         Off
Vis Source                        On
Third Source                      Off
Source Changeover (nm)            350.00
Detector Changeover (nm)          800.00
Grating Changeover (nm)           800.00
Baseline Correction               On
Baseline Type                     Baseline correction
Baseline File Name
Baseline Std Ref File Name
Cycle Mode                        On
Cycle Count                       15
Cycle Time (min)                  1.00
Comments
Method Log     :
Method Name    : C:\Documents and Settings\CNM_2\Desktop\users\gully\20140206\20150206_Cary_2.BSW
Date/Time stamp: 2/6/2015 1:50:50 PM
Method Modifications:
Y mode Changed: 2/6/2015 1:43:58 PM, Old:Abs, New:%T
Baseline Correction Changed: 2/6/2015 1:43:58 PM, Old:0, New:1
Sipper Type Changed: 2/6/2015 1:43:58 PM, Old:Internal RSA, New:External sipper
Saved as C:\Documents and Settings\CNM_2\Desktop\users\gully\20140206\20150206_Cary_2.BSW
End Method Modifications
[Time] , 6.047
<SBW (nm)> , 2.00
<Energy> , 3.00
<Slit height> , Full
<Current Wavelength> , 1249.00
<Cycle Count> , 7
<Cycle Time> , 0:06

empty_2_8,
empty_2_8
Collection Time: 2/6/2015 1:58:00 PM
Operator Name  :
Scan Software Version: 3.00(182)
Parameter List :
Instrument                        Cary 5000
Instrument Version                1.09
Start (nm)                        1775.00
Stop (nm)                         1250.00
X Mode                            Nanometers
Y Mode                            %T
UV-Vis Data Interval (nm)         10.000
UV-Vis Ave. Time (sec)            0.100
UV-Vis SBW (nm)                   2.000
UV-Vis Energy                     1.00
Slit Height                       Full
Beam Mode                         Single front
Signal-to-noise Mode              Off
UV Source                         Off
Vis Source                        On
Third Source                      Off
Source Changeover (nm)            350.00
Detector Changeover (nm)          800.00
Grating Changeover (nm)           800.00
Baseline Correction               On
Baseline Type                     Baseline correction
Baseline File Name
Baseline Std Ref File Name
Cycle Mode                        On
Cycle Count                       15
Cycle Time (min)                  1.00
Comments
Method Log     :
Method Name    : C:\Documents and Settings\CNM_2\Desktop\users\gully\20140206\20150206_Cary_2.BSW
Date/Time stamp: 2/6/2015 1:50:50 PM
Method Modifications:
Y mode Changed: 2/6/2015 1:43:58 PM, Old:Abs, New:%T
Baseline Correction Changed: 2/6/2015 1:43:58 PM, Old:0, New:1
Sipper Type Changed: 2/6/2015 1:43:58 PM, Old:Internal RSA, New:External sipper
Saved as C:\Documents and Settings\CNM_2\Desktop\users\gully\20140206\20150206_Cary_2.BSW
End Method Modifications
[Time] , 7.054
<SBW (nm)> , 2.00
<Energy> , 3.00
<Slit height> , Full
<Current Wavelength> , 1250.00
<Cycle Count> , 8
<Cycle Time> , 0:06

empty_2_9,
empty_2_9
Collection Time: 2/6/2015 1:59:01 PM
Operator Name  :
Scan Software Version: 3.00(182)
Parameter List :
Instrument                        Cary 5000
Instrument Version                1.09
Start (nm)                        1775.00
Stop (nm)                         1250.00
X Mode                            Nanometers
Y Mode                            %T
UV-Vis Data Interval (nm)         10.000
UV-Vis Ave. Time (sec)            0.100
UV-Vis SBW (nm)                   2.000
UV-Vis Energy                     1.00
Slit Height                       Full
Beam Mode                         Single front
Signal-to-noise Mode              Off
UV Source                         Off
Vis Source                        On
Third Source                      Off
Source Changeover (nm)            350.00
Detector Changeover (nm)          800.00
Grating Changeover (nm)           800.00
Baseline Correction               On
Baseline Type                     Baseline correction
Baseline File Name
Baseline Std Ref File Name
Cycle Mode                        On
Cycle Count                       15
Cycle Time (min)                  1.00
Comments
Method Log     :
Method Name    : C:\Documents and Settings\CNM_2\Desktop\users\gully\20140206\20150206_Cary_2.BSW
Date/Time stamp: 2/6/2015 1:50:50 PM
Method Modifications:
Y mode Changed: 2/6/2015 1:43:58 PM, Old:Abs, New:%T
Baseline Correction Changed: 2/6/2015 1:43:58 PM, Old:0, New:1
Sipper Type Changed: 2/6/2015 1:43:58 PM, Old:Internal RSA, New:External sipper
Saved as C:\Documents and Settings\CNM_2\Desktop\users\gully\20140206\20150206_Cary_2.BSW
End Method Modifications
[Time] , 8.056
<SBW (nm)> , 2.00
<Energy> , 3.00
<Slit height> , Full
<Current Wavelength> , 1250.00
<Cycle Count> , 9
<Cycle Time> , 0:06

empty_2_10,
empty_2_10
Collection Time: 2/6/2015 2:00:01 PM
Operator Name  :
Scan Software Version: 3.00(182)
Parameter List :
Instrument                        Cary 5000
Instrument Version                1.09
Start (nm)                        1775.00
Stop (nm)                         1250.00
X Mode                            Nanometers
Y Mode                            %T
UV-Vis Data Interval (nm)         10.000
UV-Vis Ave. Time (sec)            0.100
UV-Vis SBW (nm)                   2.000
UV-Vis Energy                     1.00
Slit Height                       Full
Beam Mode                         Single front
Signal-to-noise Mode              Off
UV Source                         Off
Vis Source                        On
Third Source                      Off
Source Changeover (nm)            350.00
Detector Changeover (nm)          800.00
Grating Changeover (nm)           800.00
Baseline Correction               On
Baseline Type                     Baseline correction
Baseline File Name
Baseline Std Ref File Name
Cycle Mode                        On
Cycle Count                       15
Cycle Time (min)                  1.00
Comments
Method Log     :
Method Name    : C:\Documents and Settings\CNM_2\Desktop\users\gully\20140206\20150206_Cary_2.BSW
Date/Time stamp: 2/6/2015 1:50:50 PM
Method Modifications:
Y mode Changed: 2/6/2015 1:43:58 PM, Old:Abs, New:%T
Baseline Correction Changed: 2/6/2015 1:43:58 PM, Old:0, New:1
Sipper Type Changed: 2/6/2015 1:43:58 PM, Old:Internal RSA, New:External sipper
Saved as C:\Documents and Settings\CNM_2\Desktop\users\gully\20140206\20150206_Cary_2.BSW
End Method Modifications
[Time] , 9.065
<SBW (nm)> , 2.00
<Energy> , 3.00
<Slit height> , Full
<Current Wavelength> , 1250.00
<Cycle Count> , 10
<Cycle Time> , 0:06

empty_2_11,
empty_2_11
Collection Time: 2/6/2015 2:01:01 PM
Operator Name  :
Scan Software Version: 3.00(182)
Parameter List :
Instrument                        Cary 5000
Instrument Version                1.09
Start (nm)                        1775.00
Stop (nm)                         1250.00
X Mode                            Nanometers
Y Mode                            %T
UV-Vis Data Interval (nm)         10.000
UV-Vis Ave. Time (sec)            0.100
UV-Vis SBW (nm)                   2.000
UV-Vis Energy                     1.00
Slit Height                       Full
Beam Mode                         Single front
Signal-to-noise Mode              Off
UV Source                         Off
Vis Source                        On
Third Source                      Off
Source Changeover (nm)            350.00
Detector Changeover (nm)          800.00
Grating Changeover (nm)           800.00
Baseline Correction               On
Baseline Type                     Baseline correction
Baseline File Name
Baseline Std Ref File Name
Cycle Mode                        On
Cycle Count                       15
Cycle Time (min)                  1.00
Comments
Method Log     :
Method Name    : C:\Documents and Settings\CNM_2\Desktop\users\gully\20140206\20150206_Cary_2.BSW
Date/Time stamp: 2/6/2015 2:00:50 PM
Method Modifications:
Y mode Changed: 2/6/2015 1:43:58 PM, Old:Abs, New:%T
Baseline Correction Changed: 2/6/2015 1:43:58 PM, Old:0, New:1
Sipper Type Changed: 2/6/2015 1:43:58 PM, Old:Internal RSA, New:External sipper
Saved as C:\Documents and Settings\CNM_2\Desktop\users\gully\20140206\20150206_Cary_2.BSW
End Method Modifications
[Time] , 10.067
<SBW (nm)> , 2.00
<Energy> , 3.00
<Slit height> , Full
<Current Wavelength> , 1249.00
<Cycle Count> , 11
<Cycle Time> , 0:06

empty_2_12,
empty_2_12
Collection Time: 2/6/2015 2:02:01 PM
Operator Name  :
Scan Software Version: 3.00(182)
Parameter List :
Instrument                        Cary 5000
Instrument Version                1.09
Start (nm)                        1775.00
Stop (nm)                         1250.00
X Mode                            Nanometers
Y Mode                            %T
UV-Vis Data Interval (nm)         10.000
UV-Vis Ave. Time (sec)            0.100
UV-Vis SBW (nm)                   2.000
UV-Vis Energy                     1.00
Slit Height                       Full
Beam Mode                         Single front
Signal-to-noise Mode              Off
UV Source                         Off
Vis Source                        On
Third Source                      Off
Source Changeover (nm)            350.00
Detector Changeover (nm)          800.00
Grating Changeover (nm)           800.00
Baseline Correction               On
Baseline Type                     Baseline correction
Baseline File Name
Baseline Std Ref File Name
Cycle Mode                        On
Cycle Count                       15
Cycle Time (min)                  1.00
Comments
Method Log     :
Method Name    : C:\Documents and Settings\CNM_2\Desktop\users\gully\20140206\20150206_Cary_2.BSW
Date/Time stamp: 2/6/2015 2:00:50 PM
Method Modifications:
Y mode Changed: 2/6/2015 1:43:58 PM, Old:Abs, New:%T
Baseline Correction Changed: 2/6/2015 1:43:58 PM, Old:0, New:1
Sipper Type Changed: 2/6/2015 1:43:58 PM, Old:Internal RSA, New:External sipper
Saved as C:\Documents and Settings\CNM_2\Desktop\users\gully\20140206\20150206_Cary_2.BSW
End Method Modifications
[Time] , 11.073
<SBW (nm)> , 2.00
<Energy> , 3.00
<Slit height> , Full
<Current Wavelength> , 1249.00
<Cycle Count> , 12
<Cycle Time> , 0:06

empty_2_13,
empty_2_13
Collection Time: 2/6/2015 2:03:02 PM
Operator Name  :
Scan Software Version: 3.00(182)
Parameter List :
Instrument                        Cary 5000
Instrument Version                1.09
Start (nm)                        1775.00
Stop (nm)                         1250.00
X Mode                            Nanometers
Y Mode                            %T
UV-Vis Data Interval (nm)         10.000
UV-Vis Ave. Time (sec)            0.100
UV-Vis SBW (nm)                   2.000
UV-Vis Energy                     1.00
Slit Height                       Full
Beam Mode                         Single front
Signal-to-noise Mode              Off
UV Source                         Off
Vis Source                        On
Third Source                      Off
Source Changeover (nm)            350.00
Detector Changeover (nm)          800.00
Grating Changeover (nm)           800.00
Baseline Correction               On
Baseline Type                     Baseline correction
Baseline File Name
Baseline Std Ref File Name
Cycle Mode                        On
Cycle Count                       15
Cycle Time (min)                  1.00
Comments
Method Log     :
Method Name    : C:\Documents and Settings\CNM_2\Desktop\users\gully\20140206\20150206_Cary_2.BSW
Date/Time stamp: 2/6/2015 2:00:50 PM
Method Modifications:
Y mode Changed: 2/6/2015 1:43:58 PM, Old:Abs, New:%T
Baseline Correction Changed: 2/6/2015 1:43:58 PM, Old:0, New:1
Sipper Type Changed: 2/6/2015 1:43:58 PM, Old:Internal RSA, New:External sipper
Saved as C:\Documents and Settings\CNM_2\Desktop\users\gully\20140206\20150206_Cary_2.BSW
End Method Modifications
[Time] , 12.081
<SBW (nm)> , 2.00
<Energy> , 3.00
<Slit height> , Full
<Current Wavelength> , 1250.00
<Cycle Count> , 13
<Cycle Time> , 0:06

empty_2_14,
empty_2_14
Collection Time: 2/6/2015 2:04:02 PM
Operator Name  :
Scan Software Version: 3.00(182)
Parameter List :
Instrument                        Cary 5000
Instrument Version                1.09
Start (nm)                        1775.00
Stop (nm)                         1250.00
X Mode                            Nanometers
Y Mode                            %T
UV-Vis Data Interval (nm)         10.000
UV-Vis Ave. Time (sec)            0.100
UV-Vis SBW (nm)                   2.000
UV-Vis Energy                     1.00
Slit Height                       Full
Beam Mode                         Single front
Signal-to-noise Mode              Off
UV Source                         Off
Vis Source                        On
Third Source                      Off
Source Changeover (nm)            350.00
Detector Changeover (nm)          800.00
Grating Changeover (nm)           800.00
Baseline Correction               On
Baseline Type                     Baseline correction
Baseline File Name
Baseline Std Ref File Name
Cycle Mode                        On
Cycle Count                       15
Cycle Time (min)                  1.00
Comments
Method Log     :
Method Name    : C:\Documents and Settings\CNM_2\Desktop\users\gully\20140206\20150206_Cary_2.BSW
Date/Time stamp: 2/6/2015 2:00:50 PM
Method Modifications:
Y mode Changed: 2/6/2015 1:43:58 PM, Old:Abs, New:%T
Baseline Correction Changed: 2/6/2015 1:43:58 PM, Old:0, New:1
Sipper Type Changed: 2/6/2015 1:43:58 PM, Old:Internal RSA, New:External sipper
Saved as C:\Documents and Settings\CNM_2\Desktop\users\gully\20140206\20150206_Cary_2.BSW
End Method Modifications
[Time] , 13.090
<SBW (nm)> , 2.00
<Energy> , 3.00
<Slit height> , Full
<Current Wavelength> , 1249.00
<Cycle Count> , 14
<Cycle Time> , 0:06

empty_2_15,
empty_2_15
Collection Time: 2/6/2015 2:05:03 PM
Operator Name  :
Scan Software Version: 3.00(182)
Parameter List :
Instrument                        Cary 5000
Instrument Version                1.09
Start (nm)                        1775.00
Stop (nm)                         1250.00
X Mode                            Nanometers
Y Mode                            %T
UV-Vis Data Interval (nm)         10.000
UV-Vis Ave. Time (sec)            0.100
UV-Vis SBW (nm)                   2.000
UV-Vis Energy                     1.00
Slit Height                       Full
Beam Mode                         Single front
Signal-to-noise Mode              Off
UV Source                         Off
Vis Source                        On
Third Source                      Off
Source Changeover (nm)            350.00
Detector Changeover (nm)          800.00
Grating Changeover (nm)           800.00
Baseline Correction               On
Baseline Type                     Baseline correction
Baseline File Name
Baseline Std Ref File Name
Cycle Mode                        On
Cycle Count                       15
Cycle Time (min)                  1.00
Comments
Method Log     :
Method Name    : C:\Documents and Settings\CNM_2\Desktop\users\gully\20140206\20150206_Cary_2.BSW
Date/Time stamp: 2/6/2015 2:00:50 PM
Method Modifications:
Y mode Changed: 2/6/2015 1:43:58 PM, Old:Abs, New:%T
Baseline Correction Changed: 2/6/2015 1:43:58 PM, Old:0, New:1
Sipper Type Changed: 2/6/2015 1:43:58 PM, Old:Internal RSA, New:External sipper
Saved as C:\Documents and Settings\CNM_2\Desktop\users\gully\20140206\20150206_Cary_2.BSW
End Method Modifications
[Time] , 14.092
<SBW (nm)> , 2.00
<Energy> , 3.00
<Slit height> , Full
<Current Wavelength> , 1249.00
<Cycle Count> , 15
<Cycle Time> , 0:06

empty_3_1,
empty_3_1
Collection Time: 2/6/2015 2:20:40 PM
Operator Name  :
Scan Software Version: 3.00(182)
Parameter List :
Instrument                        Cary 5000
Instrument Version                1.09
Start (nm)                        1775.00
Stop (nm)                         1250.00
X Mode                            Nanometers
Y Mode                            %T
UV-Vis Data Interval (nm)         10.000
UV-Vis Ave. Time (sec)            0.100
UV-Vis SBW (nm)                   2.000
UV-Vis Energy                     1.00
Slit Height                       Full
Beam Mode                         Single front
Signal-to-noise Mode              Off
UV Source                         Off
Vis Source                        On
Third Source                      Off
Source Changeover (nm)            350.00
Detector Changeover (nm)          800.00
Grating Changeover (nm)           800.00
Baseline Correction               On
Baseline Type                     Baseline correction
Baseline File Name                C:\Documents and Settings\CNM_2\Desktop\users\gully\20140206\20150206_Cary_2.BSW
Baseline Std Ref File Name
Cycle Mode                        On
Cycle Count                       5
Cycle Time (min)                  1.00
Comments
Method Log     :
Method Name    : C:\Documents and Settings\CNM_2\Desktop\users\gully\20140206\20150206_Cary_3.BSW
Date/Time stamp: 2/6/2015 2:20:38 PM
Method Modifications:
Saved as C:\Documents and Settings\CNM_2\Desktop\users\gully\20140206\20150206_Cary_3.BSW
End Method Modifications
[Time] , 0.000
<SBW (nm)> , 2.00
<Energy> , 3.00
<Slit height> , Full
<Current Wavelength> , 1249.00
<Cycle Count> , 1
<Cycle Time> , 0:06

empty_3_2,
empty_3_2
Collection Time: 2/6/2015 2:21:41 PM
Operator Name  :
Scan Software Version: 3.00(182)
Parameter List :
Instrument                        Cary 5000
Instrument Version                1.09
Start (nm)                        1775.00
Stop (nm)                         1250.00
X Mode                            Nanometers
Y Mode                            %T
UV-Vis Data Interval (nm)         10.000
UV-Vis Ave. Time (sec)            0.100
UV-Vis SBW (nm)                   2.000
UV-Vis Energy                     1.00
Slit Height                       Full
Beam Mode                         Single front
Signal-to-noise Mode              Off
UV Source                         Off
Vis Source                        On
Third Source                      Off
Source Changeover (nm)            350.00
Detector Changeover (nm)          800.00
Grating Changeover (nm)           800.00
Baseline Correction               On
Baseline Type                     Baseline correction
Baseline File Name                C:\Documents and Settings\CNM_2\Desktop\users\gully\20140206\20150206_Cary_2.BSW
Baseline Std Ref File Name
Cycle Mode                        On
Cycle Count                       5
Cycle Time (min)                  1.00
Comments
Method Log     :
Method Name    : C:\Documents and Settings\CNM_2\Desktop\users\gully\20140206\20150206_Cary_3.BSW
Date/Time stamp: 2/6/2015 2:20:38 PM
Method Modifications:
Saved as C:\Documents and Settings\CNM_2\Desktop\users\gully\20140206\20150206_Cary_3.BSW
End Method Modifications
[Time] , 1.009
<SBW (nm)> , 2.00
<Energy> , 3.00
<Slit height> , Full
<Current Wavelength> , 1249.00
<Cycle Count> , 2
<Cycle Time> , 0:06

empty_3_3,
empty_3_3
Collection Time: 2/6/2015 2:22:42 PM
Operator Name  :
Scan Software Version: 3.00(182)
Parameter List :
Instrument                        Cary 5000
Instrument Version                1.09
Start (nm)                        1775.00
Stop (nm)                         1250.00
X Mode                            Nanometers
Y Mode                            %T
UV-Vis Data Interval (nm)         10.000
UV-Vis Ave. Time (sec)            0.100
UV-Vis SBW (nm)                   2.000
UV-Vis Energy                     1.00
Slit Height                       Full
Beam Mode                         Single front
Signal-to-noise Mode              Off
UV Source                         Off
Vis Source                        On
Third Source                      Off
Source Changeover (nm)            350.00
Detector Changeover (nm)          800.00
Grating Changeover (nm)           800.00
Baseline Correction               On
Baseline Type                     Baseline correction
Baseline File Name                C:\Documents and Settings\CNM_2\Desktop\users\gully\20140206\20150206_Cary_2.BSW
Baseline Std Ref File Name
Cycle Mode                        On
Cycle Count                       5
Cycle Time (min)                  1.00
Comments
Method Log     :
Method Name    : C:\Documents and Settings\CNM_2\Desktop\users\gully\20140206\20150206_Cary_3.BSW
Date/Time stamp: 2/6/2015 2:20:38 PM
Method Modifications:
Saved as C:\Documents and Settings\CNM_2\Desktop\users\gully\20140206\20150206_Cary_3.BSW
End Method Modifications
[Time] , 2.016
<SBW (nm)> , 2.00
<Energy> , 3.00
<Slit height> , Full
<Current Wavelength> , 1249.00
<Cycle Count> , 3
<Cycle Time> , 0:06

empty_3_4,
empty_3_4
Collection Time: 2/6/2015 2:23:42 PM
Operator Name  :
Scan Software Version: 3.00(182)
Parameter List :
Instrument                        Cary 5000
Instrument Version                1.09
Start (nm)                        1775.00
Stop (nm)                         1250.00
X Mode                            Nanometers
Y Mode                            %T
UV-Vis Data Interval (nm)         10.000
UV-Vis Ave. Time (sec)            0.100
UV-Vis SBW (nm)                   2.000
UV-Vis Energy                     1.00
Slit Height                       Full
Beam Mode                         Single front
Signal-to-noise Mode              Off
UV Source                         Off
Vis Source                        On
Third Source                      Off
Source Changeover (nm)            350.00
Detector Changeover (nm)          800.00
Grating Changeover (nm)           800.00
Baseline Correction               On
Baseline Type                     Baseline correction
Baseline File Name                C:\Documents and Settings\CNM_2\Desktop\users\gully\20140206\20150206_Cary_2.BSW
Baseline Std Ref File Name
Cycle Mode                        On
Cycle Count                       5
Cycle Time (min)                  1.00
Comments
Method Log     :
Method Name    : C:\Documents and Settings\CNM_2\Desktop\users\gully\20140206\20150206_Cary_3.BSW
Date/Time stamp: 2/6/2015 2:20:38 PM
Method Modifications:
Saved as C:\Documents and Settings\CNM_2\Desktop\users\gully\20140206\20150206_Cary_3.BSW
End Method Modifications
[Time] , 3.024
<SBW (nm)> , 2.00
<Energy> , 3.00
<Slit height> , Full
<Current Wavelength> , 1249.00
<Cycle Count> , 4
<Cycle Time> , 0:06

empty_3_5,
empty_3_5
Collection Time: 2/6/2015 2:24:43 PM
Operator Name  :
Scan Software Version: 3.00(182)
Parameter List :
Instrument                        Cary 5000
Instrument Version                1.09
Start (nm)                        1775.00
Stop (nm)                         1250.00
X Mode                            Nanometers
Y Mode                            %T
UV-Vis Data Interval (nm)         10.000
UV-Vis Ave. Time (sec)            0.100
UV-Vis SBW (nm)                   2.000
UV-Vis Energy                     1.00
Slit Height                       Full
Beam Mode                         Single front
Signal-to-noise Mode              Off
UV Source                         Off
Vis Source                        On
Third Source                      Off
Source Changeover (nm)            350.00
Detector Changeover (nm)          800.00
Grating Changeover (nm)           800.00
Baseline Correction               On
Baseline Type                     Baseline correction
Baseline File Name                C:\Documents and Settings\CNM_2\Desktop\users\gully\20140206\20150206_Cary_2.BSW
Baseline Std Ref File Name
Cycle Mode                        On
Cycle Count                       5
Cycle Time (min)                  1.00
Comments
Method Log     :
Method Name    : C:\Documents and Settings\CNM_2\Desktop\users\gully\20140206\20150206_Cary_3.BSW
Date/Time stamp: 2/6/2015 2:20:38 PM
Method Modifications:
Saved as C:\Documents and Settings\CNM_2\Desktop\users\gully\20140206\20150206_Cary_3.BSW
End Method Modifications
[Time] , 4.031
<SBW (nm)> , 2.00
<Energy> , 3.00
<Slit height> , Full
<Current Wavelength> , 1249.00
<Cycle Count> , 5
<Cycle Time> , 0:06

VG05_1_1,
VG05_1_1
Collection Time: 2/6/2015 2:27:37 PM
Operator Name  :
Scan Software Version: 3.00(182)
Parameter List :
Instrument                        Cary 5000
Instrument Version                1.09
Start (nm)                        1775.00
Stop (nm)                         1250.00
X Mode                            Nanometers
Y Mode                            %T
UV-Vis Data Interval (nm)         10.000
UV-Vis Ave. Time (sec)            0.100
UV-Vis SBW (nm)                   2.000
UV-Vis Energy                     1.00
Slit Height                       Full
Beam Mode                         Single front
Signal-to-noise Mode              Off
UV Source                         Off
Vis Source                        On
Third Source                      Off
Source Changeover (nm)            350.00
Detector Changeover (nm)          800.00
Grating Changeover (nm)           800.00
Baseline Correction               On
Baseline Type                     Baseline correction
Baseline File Name                C:\Documents and Settings\CNM_2\Desktop\users\gully\20140206\20150206_Cary_3.BSW
Baseline Std Ref File Name
Cycle Mode                        On
Cycle Count                       5
Cycle Time (min)                  1.00
Comments
Method Log     :
Method Name    : C:\Documents and Settings\CNM_2\Desktop\users\gully\20140206\20150206_Cary_4.BSW
Date/Time stamp: 2/6/2015 2:27:23 PM
Method Modifications:
Saved as C:\Documents and Settings\CNM_2\Desktop\users\gully\20140206\20150206_Cary_4.BSW
End Method Modifications
[Time] , 0.000
<SBW (nm)> , 2.00
<Energy> , 3.00
<Slit height> , Full
<Current Wavelength> , 1249.00
<Cycle Count> , 1
<Cycle Time> , 0:06

VG05_1_2,
VG05_1_2
Collection Time: 2/6/2015 2:28:38 PM
Operator Name  :
Scan Software Version: 3.00(182)
Parameter List :
Instrument                        Cary 5000
Instrument Version                1.09
Start (nm)                        1775.00
Stop (nm)                         1250.00
X Mode                            Nanometers
Y Mode                            %T
UV-Vis Data Interval (nm)         10.000
UV-Vis Ave. Time (sec)            0.100
UV-Vis SBW (nm)                   2.000
UV-Vis Energy                     1.00
Slit Height                       Full
Beam Mode                         Single front
Signal-to-noise Mode              Off
UV Source                         Off
Vis Source                        On
Third Source                      Off
Source Changeover (nm)            350.00
Detector Changeover (nm)          800.00
Grating Changeover (nm)           800.00
Baseline Correction               On
Baseline Type                     Baseline correction
Baseline File Name                C:\Documents and Settings\CNM_2\Desktop\users\gully\20140206\20150206_Cary_3.BSW
Baseline Std Ref File Name
Cycle Mode                        On
Cycle Count                       5
Cycle Time (min)                  1.00
Comments
Method Log     :
Method Name    : C:\Documents and Settings\CNM_2\Desktop\users\gully\20140206\20150206_Cary_4.BSW
Date/Time stamp: 2/6/2015 2:27:23 PM
Method Modifications:
Saved as C:\Documents and Settings\CNM_2\Desktop\users\gully\20140206\20150206_Cary_4.BSW
End Method Modifications
[Time] , 1.009
<SBW (nm)> , 2.00
<Energy> , 3.00
<Slit height> , Full
<Current Wavelength> , 1250.00
<Cycle Count> , 2
<Cycle Time> , 0:06

VG05_1_3,
VG05_1_3
Collection Time: 2/6/2015 2:29:39 PM
Operator Name  :
Scan Software Version: 3.00(182)
Parameter List :
Instrument                        Cary 5000
Instrument Version                1.09
Start (nm)                        1775.00
Stop (nm)                         1250.00
X Mode                            Nanometers
Y Mode                            %T
UV-Vis Data Interval (nm)         10.000
UV-Vis Ave. Time (sec)            0.100
UV-Vis SBW (nm)                   2.000
UV-Vis Energy                     1.00
Slit Height                       Full
Beam Mode                         Single front
Signal-to-noise Mode              Off
UV Source                         Off
Vis Source                        On
Third Source                      Off
Source Changeover (nm)            350.00
Detector Changeover (nm)          800.00
Grating Changeover (nm)           800.00
Baseline Correction               On
Baseline Type                     Baseline correction
Baseline File Name                C:\Documents and Settings\CNM_2\Desktop\users\gully\20140206\20150206_Cary_3.BSW
Baseline Std Ref File Name
Cycle Mode                        On
Cycle Count                       5
Cycle Time (min)                  1.00
Comments
Method Log     :
Method Name    : C:\Documents and Settings\CNM_2\Desktop\users\gully\20140206\20150206_Cary_4.BSW
Date/Time stamp: 2/6/2015 2:27:23 PM
Method Modifications:
Saved as C:\Documents and Settings\CNM_2\Desktop\users\gully\20140206\20150206_Cary_4.BSW
End Method Modifications
[Time] , 2.014
<SBW (nm)> , 2.00
<Energy> , 3.00
<Slit height> , Full
<Current Wavelength> , 1249.00
<Cycle Count> , 3
<Cycle Time> , 0:06

VG05_1_4,
VG05_1_4
Collection Time: 2/6/2015 2:30:39 PM
Operator Name  :
Scan Software Version: 3.00(182)
Parameter List :
Instrument                        Cary 5000
Instrument Version                1.09
Start (nm)                        1775.00
Stop (nm)                         1250.00
X Mode                            Nanometers
Y Mode                            %T
UV-Vis Data Interval (nm)         10.000
UV-Vis Ave. Time (sec)            0.100
UV-Vis SBW (nm)                   2.000
UV-Vis Energy                     1.00
Slit Height                       Full
Beam Mode                         Single front
Signal-to-noise Mode              Off
UV Source                         Off
Vis Source                        On
Third Source                      Off
Source Changeover (nm)            350.00
Detector Changeover (nm)          800.00
Grating Changeover (nm)           800.00
Baseline Correction               On
Baseline Type                     Baseline correction
Baseline File Name                C:\Documents and Settings\CNM_2\Desktop\users\gully\20140206\20150206_Cary_3.BSW
Baseline Std Ref File Name
Cycle Mode                        On
Cycle Count                       5
Cycle Time (min)                  1.00
Comments
Method Log     :
Method Name    : C:\Documents and Settings\CNM_2\Desktop\users\gully\20140206\20150206_Cary_4.BSW
Date/Time stamp: 2/6/2015 2:27:23 PM
Method Modifications:
Saved as C:\Documents and Settings\CNM_2\Desktop\users\gully\20140206\20150206_Cary_4.BSW
End Method Modifications
[Time] , 3.022
<SBW (nm)> , 2.00
<Energy> , 3.00
<Slit height> , Full
<Current Wavelength> , 1249.00
<Cycle Count> , 4
<Cycle Time> , 0:06

VG05_1_5,
VG05_1_5
Collection Time: 2/6/2015 2:31:40 PM
Operator Name  :
Scan Software Version: 3.00(182)
Parameter List :
Instrument                        Cary 5000
Instrument Version                1.09
Start (nm)                        1775.00
Stop (nm)                         1250.00
X Mode                            Nanometers
Y Mode                            %T
UV-Vis Data Interval (nm)         10.000
UV-Vis Ave. Time (sec)            0.100
UV-Vis SBW (nm)                   2.000
UV-Vis Energy                     1.00
Slit Height                       Full
Beam Mode                         Single front
Signal-to-noise Mode              Off
UV Source                         Off
Vis Source                        On
Third Source                      Off
Source Changeover (nm)            350.00
Detector Changeover (nm)          800.00
Grating Changeover (nm)           800.00
Baseline Correction               On
Baseline Type                     Baseline correction
Baseline File Name                C:\Documents and Settings\CNM_2\Desktop\users\gully\20140206\20150206_Cary_3.BSW
Baseline Std Ref File Name
Cycle Mode                        On
Cycle Count                       5
Cycle Time (min)                  1.00
Comments
Method Log     :
Method Name    : C:\Documents and Settings\CNM_2\Desktop\users\gully\20140206\20150206_Cary_4.BSW
Date/Time stamp: 2/6/2015 2:27:23 PM
Method Modifications:
Saved as C:\Documents and Settings\CNM_2\Desktop\users\gully\20140206\20150206_Cary_4.BSW
End Method Modifications
[Time] , 4.029
<SBW (nm)> , 2.00
<Energy> , 3.00
<Slit height> , Full
<Current Wavelength> , 1249.00
<Cycle Count> , 5
<Cycle Time> , 0:06

Baseline 100%T,
Baseline 100%T
Collection Time: 2/6/2015 2:39:58 PM
Operator Name  :
Scan Software Version: 3.00(182)
Parameter List :
Instrument                        Cary 5000
Instrument Version                1.09
Start (nm)                        1775.00
Stop (nm)                         1250.00
X Mode                            Nanometers
Y Mode                            %T
UV-Vis Data Interval (nm)         10.000
UV-Vis Ave. Time (sec)            0.100
UV-Vis SBW (nm)                   2.000
UV-Vis Energy                     1.00
Slit Height                       Full
Beam Mode                         Single front
Signal-to-noise Mode              Off
UV Source                         Off
Vis Source                        On
Third Source                      Off
Source Changeover (nm)            350.00
Detector Changeover (nm)          800.00
Grating Changeover (nm)           800.00
Baseline Correction               On
Baseline Type                     Baseline correction
Baseline File Name                C:\Documents and Settings\CNM_2\Desktop\users\gully\20140206\20150206_Cary_4.BSW
Baseline Std Ref File Name
Cycle Mode                        On
Cycle Count                       5
Cycle Time (min)                  1.00
Comments
Method Log     :
Method Name    : C:\Documents and Settings\CNM_2\Desktop\users\gully\20140206\20150206_Cary_4.BSW
Date/Time stamp: 2/6/2015 2:32:37 PM
Method Modifications:
Saved as C:\Documents and Settings\CNM_2\Desktop\users\gully\20140206\20150206_Cary_4.BSW
End Method Modifications
<SBW (nm)> , 2.00
<Energy> , 3.00
<Slit height> , Full
<Current Wavelength> , 1249.00
<Cycle Count> , 5
<Cycle Time> , 0:00

empty_4_1,
empty_4_1
Collection Time: 2/6/2015 2:41:17 PM
Operator Name  :
Scan Software Version: 3.00(182)
Parameter List :
Instrument                        Cary 5000
Instrument Version                1.09
Start (nm)                        1775.00
Stop (nm)                         1250.00
X Mode                            Nanometers
Y Mode                            %T
UV-Vis Data Interval (nm)         10.000
UV-Vis Ave. Time (sec)            0.100
UV-Vis SBW (nm)                   2.000
UV-Vis Energy                     1.00
Slit Height                       Full
Beam Mode                         Single front
Signal-to-noise Mode              Off
UV Source                         Off
Vis Source                        On
Third Source                      Off
Source Changeover (nm)            350.00
Detector Changeover (nm)          800.00
Grating Changeover (nm)           800.00
Baseline Correction               On
Baseline Type                     Baseline correction
Baseline File Name
Baseline Std Ref File Name
Cycle Mode                        On
Cycle Count                       5
Cycle Time (min)                  1.00
Comments
Method Log     :
Method Name    : C:\Documents and Settings\CNM_2\Desktop\users\gully\20140206\20150206_Cary_5.BSW
Date/Time stamp: 2/6/2015 2:41:06 PM
Method Modifications:
Saved as C:\Documents and Settings\CNM_2\Desktop\users\gully\20140206\20150206_Cary_5.BSW
End Method Modifications
[Time] , 0.000
<SBW (nm)> , 2.00
<Energy> , 3.00
<Slit height> , Full
<Current Wavelength> , 1249.00
<Cycle Count> , 1
<Cycle Time> , 0:06

empty_4_2,
empty_4_2
Collection Time: 2/6/2015 2:42:23 PM
Operator Name  :
Scan Software Version: 3.00(182)
Parameter List :
Instrument                        Cary 5000
Instrument Version                1.09
Start (nm)                        1775.00
Stop (nm)                         1250.00
X Mode                            Nanometers
Y Mode                            %T
UV-Vis Data Interval (nm)         10.000
UV-Vis Ave. Time (sec)            0.100
UV-Vis SBW (nm)                   2.000
UV-Vis Energy                     1.00
Slit Height                       Full
Beam Mode                         Single front
Signal-to-noise Mode              Off
UV Source                         Off
Vis Source                        On
Third Source                      Off
Source Changeover (nm)            350.00
Detector Changeover (nm)          800.00
Grating Changeover (nm)           800.00
Baseline Correction               On
Baseline Type                     Baseline correction
Baseline File Name
Baseline Std Ref File Name
Cycle Mode                        On
Cycle Count                       5
Cycle Time (min)                  1.00
Comments
Method Log     :
Method Name    : C:\Documents and Settings\CNM_2\Desktop\users\gully\20140206\20150206_Cary_5.BSW
Date/Time stamp: 2/6/2015 2:41:06 PM
Method Modifications:
Saved as C:\Documents and Settings\CNM_2\Desktop\users\gully\20140206\20150206_Cary_5.BSW
End Method Modifications
[Time] , 1.003
<SBW (nm)> , 2.00
<Energy> , 3.00
<Slit height> , Full
<Current Wavelength> , 1729.00
<Cycle Count> , 2
<Cycle Time> , 0:54

VG09-12_1_0,
VG09-12_1_0
Collection Time: 2/6/2015 2:50:46 PM
Operator Name  :
Scan Software Version: 3.00(182)
Parameter List :
Instrument                        Cary 5000
Instrument Version                1.09
Start (nm)                        1775.00
Stop (nm)                         1250.00
X Mode                            Nanometers
Y Mode                            %T
UV-Vis Data Interval (nm)         10.000
UV-Vis Ave. Time (sec)            0.100
UV-Vis SBW (nm)                   2.000
UV-Vis Energy                     1.00
Slit Height                       Full
Beam Mode                         Single front
Signal-to-noise Mode              Off
UV Source                         Off
Vis Source                        On
Third Source                      Off
Source Changeover (nm)            350.00
Detector Changeover (nm)          800.00
Grating Changeover (nm)           800.00
Baseline Correction               On
Baseline Type                     Baseline correction
Baseline File Name                C:\Documents and Settings\CNM_2\Desktop\users\gully\20140206\20150206_Cary_5.BSW
Baseline Std Ref File Name
Cycle Mode                        Off
Accessory                         Sample Transport
Comments
Method Log     :
Method Name    : C:\Documents and Settings\CNM_2\Desktop\users\gully\20140206\20150206_Cary_6.BSW
Date/Time stamp: 2/6/2015 2:50:31 PM
Method Modifications:
Saved as C:\Documents and Settings\CNM_2\Desktop\users\gully\20140206\20150206_Cary_6.BSW
End Method Modifications
<SBW (nm)> , 2.00
<Energy> , 3.00
<Slit height> , Full
<Current Wavelength> , 1249.00
<Current Distance> , 0.0

VG09-12_1_2,
VG09-12_1_2
Collection Time: 2/6/2015 2:51:43 PM
Operator Name  :
Scan Software Version: 3.00(182)
Parameter List :
Instrument                        Cary 5000
Instrument Version                1.09
Start (nm)                        1775.00
Stop (nm)                         1250.00
X Mode                            Nanometers
Y Mode                            %T
UV-Vis Data Interval (nm)         10.000
UV-Vis Ave. Time (sec)            0.100
UV-Vis SBW (nm)                   2.000
UV-Vis Energy                     1.00
Slit Height                       Full
Beam Mode                         Single front
Signal-to-noise Mode              Off
UV Source                         Off
Vis Source                        On
Third Source                      Off
Source Changeover (nm)            350.00
Detector Changeover (nm)          800.00
Grating Changeover (nm)           800.00
Baseline Correction               On
Baseline Type                     Baseline correction
Baseline File Name                C:\Documents and Settings\CNM_2\Desktop\users\gully\20140206\20150206_Cary_5.BSW
Baseline Std Ref File Name
Cycle Mode                        Off
Accessory                         Sample Transport
Comments
Method Log     :
Method Name    : C:\Documents and Settings\CNM_2\Desktop\users\gully\20140206\20150206_Cary_6.BSW
Date/Time stamp: 2/6/2015 2:50:31 PM
Method Modifications:
Saved as C:\Documents and Settings\CNM_2\Desktop\users\gully\20140206\20150206_Cary_6.BSW
End Method Modifications
<SBW (nm)> , 2.00
<Energy> , 3.00
<Slit height> , Full
<Current Wavelength> , 1250.00
<Current Distance> , 2.0

VG09-12_1_4,
VG09-12_1_4
Collection Time: 2/6/2015 2:52:40 PM
Operator Name  :
Scan Software Version: 3.00(182)
Parameter List :
Instrument                        Cary 5000
Instrument Version                1.09
Start (nm)                        1775.00
Stop (nm)                         1250.00
X Mode                            Nanometers
Y Mode                            %T
UV-Vis Data Interval (nm)         10.000
UV-Vis Ave. Time (sec)            0.100
UV-Vis SBW (nm)                   2.000
UV-Vis Energy                     1.00
Slit Height                       Full
Beam Mode                         Single front
Signal-to-noise Mode              Off
UV Source                         Off
Vis Source                        On
Third Source                      Off
Source Changeover (nm)            350.00
Detector Changeover (nm)          800.00
Grating Changeover (nm)           800.00
Baseline Correction               On
Baseline Type                     Baseline correction
Baseline File Name                C:\Documents and Settings\CNM_2\Desktop\users\gully\20140206\20150206_Cary_5.BSW
Baseline Std Ref File Name
Cycle Mode                        Off
Accessory                         Sample Transport
Comments
Method Log     :
Method Name    : C:\Documents and Settings\CNM_2\Desktop\users\gully\20140206\20150206_Cary_6.BSW
Date/Time stamp: 2/6/2015 2:50:31 PM
Method Modifications:
Saved as C:\Documents and Settings\CNM_2\Desktop\users\gully\20140206\20150206_Cary_6.BSW
End Method Modifications
<SBW (nm)> , 2.00
<Energy> , 3.00
<Slit height> , Full
<Current Wavelength> , 1249.00
<Current Distance> , 4.0

VG09-12_1_6,
VG09-12_1_6
Collection Time: 2/6/2015 2:53:37 PM
Operator Name  :
Scan Software Version: 3.00(182)
Parameter List :
Instrument                        Cary 5000
Instrument Version                1.09
Start (nm)                        1775.00
Stop (nm)                         1250.00
X Mode                            Nanometers
Y Mode                            %T
UV-Vis Data Interval (nm)         10.000
UV-Vis Ave. Time (sec)            0.100
UV-Vis SBW (nm)                   2.000
UV-Vis Energy                     1.00
Slit Height                       Full
Beam Mode                         Single front
Signal-to-noise Mode              Off
UV Source                         Off
Vis Source                        On
Third Source                      Off
Source Changeover (nm)            350.00
Detector Changeover (nm)          800.00
Grating Changeover (nm)           800.00
Baseline Correction               On
Baseline Type                     Baseline correction
Baseline File Name                C:\Documents and Settings\CNM_2\Desktop\users\gully\20140206\20150206_Cary_5.BSW
Baseline Std Ref File Name
Cycle Mode                        Off
Accessory                         Sample Transport
Comments
Method Log     :
Method Name    : C:\Documents and Settings\CNM_2\Desktop\users\gully\20140206\20150206_Cary_6.BSW
Date/Time stamp: 2/6/2015 2:50:31 PM
Method Modifications:
Saved as C:\Documents and Settings\CNM_2\Desktop\users\gully\20140206\20150206_Cary_6.BSW
End Method Modifications
<SBW (nm)> , 2.00
<Energy> , 3.00
<Slit height> , Full
<Current Wavelength> , 1250.00
<Current Distance> , 6.0

VG09-12_1_8,
VG09-12_1_8
Collection Time: 2/6/2015 2:54:35 PM
Operator Name  :
Scan Software Version: 3.00(182)
Parameter List :
Instrument                        Cary 5000
Instrument Version                1.09
Start (nm)                        1775.00
Stop (nm)                         1250.00
X Mode                            Nanometers
Y Mode                            %T
UV-Vis Data Interval (nm)         10.000
UV-Vis Ave. Time (sec)            0.100
UV-Vis SBW (nm)                   2.000
UV-Vis Energy                     1.00
Slit Height                       Full
Beam Mode                         Single front
Signal-to-noise Mode              Off
UV Source                         Off
Vis Source                        On
Third Source                      Off
Source Changeover (nm)            350.00
Detector Changeover (nm)          800.00
Grating Changeover (nm)           800.00
Baseline Correction               On
Baseline Type                     Baseline correction
Baseline File Name                C:\Documents and Settings\CNM_2\Desktop\users\gully\20140206\20150206_Cary_5.BSW
Baseline Std Ref File Name
Cycle Mode                        Off
Accessory                         Sample Transport
Comments
Method Log     :
Method Name    : C:\Documents and Settings\CNM_2\Desktop\users\gully\20140206\20150206_Cary_6.BSW
Date/Time stamp: 2/6/2015 2:50:31 PM
Method Modifications:
Saved as C:\Documents and Settings\CNM_2\Desktop\users\gully\20140206\20150206_Cary_6.BSW
End Method Modifications
<SBW (nm)> , 2.00
<Energy> , 3.00
<Slit height> , Full
<Current Wavelength> , 1250.00
<Current Distance> , 8.0

VG09-12_1_10,
VG09-12_1_10
Collection Time: 2/6/2015 2:55:32 PM
Operator Name  :
Scan Software Version: 3.00(182)
Parameter List :
Instrument                        Cary 5000
Instrument Version                1.09
Start (nm)                        1775.00
Stop (nm)                         1250.00
X Mode                            Nanometers
Y Mode                            %T
UV-Vis Data Interval (nm)         10.000
UV-Vis Ave. Time (sec)            0.100
UV-Vis SBW (nm)                   2.000
UV-Vis Energy                     1.00
Slit Height                       Full
Beam Mode                         Single front
Signal-to-noise Mode              Off
UV Source                         Off
Vis Source                        On
Third Source                      Off
Source Changeover (nm)            350.00
Detector Changeover (nm)          800.00
Grating Changeover (nm)           800.00
Baseline Correction               On
Baseline Type                     Baseline correction
Baseline File Name                C:\Documents and Settings\CNM_2\Desktop\users\gully\20140206\20150206_Cary_5.BSW
Baseline Std Ref File Name
Cycle Mode                        Off
Accessory                         Sample Transport
Comments
Method Log     :
Method Name    : C:\Documents and Settings\CNM_2\Desktop\users\gully\20140206\20150206_Cary_6.BSW
Date/Time stamp: 2/6/2015 2:50:31 PM
Method Modifications:
Saved as C:\Documents and Settings\CNM_2\Desktop\users\gully\20140206\20150206_Cary_6.BSW
End Method Modifications
<SBW (nm)> , 2.00
<Energy> , 3.00
<Slit height> , Full
<Current Wavelength> , 1249.00
<Current Distance> , 10.0

VG09-12_1_12,
VG09-12_1_12
Collection Time: 2/6/2015 2:56:30 PM
Operator Name  :
Scan Software Version: 3.00(182)
Parameter List :
Instrument                        Cary 5000
Instrument Version                1.09
Start (nm)                        1775.00
Stop (nm)                         1250.00
X Mode                            Nanometers
Y Mode                            %T
UV-Vis Data Interval (nm)         10.000
UV-Vis Ave. Time (sec)            0.100
UV-Vis SBW (nm)                   2.000
UV-Vis Energy                     1.00
Slit Height                       Full
Beam Mode                         Single front
Signal-to-noise Mode              Off
UV Source                         Off
Vis Source                        On
Third Source                      Off
Source Changeover (nm)            350.00
Detector Changeover (nm)          800.00
Grating Changeover (nm)           800.00
Baseline Correction               On
Baseline Type                     Baseline correction
Baseline File Name                C:\Documents and Settings\CNM_2\Desktop\users\gully\20140206\20150206_Cary_5.BSW
Baseline Std Ref File Name
Cycle Mode                        Off
Accessory                         Sample Transport
Comments
Method Log     :
Method Name    : C:\Documents and Settings\CNM_2\Desktop\users\gully\20140206\20150206_Cary_6.BSW
Date/Time stamp: 2/6/2015 2:50:31 PM
Method Modifications:
Saved as C:\Documents and Settings\CNM_2\Desktop\users\gully\20140206\20150206_Cary_6.BSW
End Method Modifications
<SBW (nm)> , 2.00
<Energy> , 3.00
<Slit height> , Full
<Current Wavelength> , 1249.00
<Current Distance> , 12.0

VG09-12_1_14,
VG09-12_1_14
Collection Time: 2/6/2015 2:57:27 PM
Operator Name  :
Scan Software Version: 3.00(182)
Parameter List :
Instrument                        Cary 5000
Instrument Version                1.09
Start (nm)                        1775.00
Stop (nm)                         1250.00
X Mode                            Nanometers
Y Mode                            %T
UV-Vis Data Interval (nm)         10.000
UV-Vis Ave. Time (sec)            0.100
UV-Vis SBW (nm)                   2.000
UV-Vis Energy                     1.00
Slit Height                       Full
Beam Mode                         Single front
Signal-to-noise Mode              Off
UV Source                         Off
Vis Source                        On
Third Source                      Off
Source Changeover (nm)            350.00
Detector Changeover (nm)          800.00
Grating Changeover (nm)           800.00
Baseline Correction               On
Baseline Type                     Baseline correction
Baseline File Name                C:\Documents and Settings\CNM_2\Desktop\users\gully\20140206\20150206_Cary_5.BSW
Baseline Std Ref File Name
Cycle Mode                        Off
Accessory                         Sample Transport
Comments
Method Log     :
Method Name    : C:\Documents and Settings\CNM_2\Desktop\users\gully\20140206\20150206_Cary_6.BSW
Date/Time stamp: 2/6/2015 2:50:31 PM
Method Modifications:
Saved as C:\Documents and Settings\CNM_2\Desktop\users\gully\20140206\20150206_Cary_6.BSW
End Method Modifications
<SBW (nm)> , 2.00
<Energy> , 3.00
<Slit height> , Full
<Current Wavelength> , 1250.00
<Current Distance> , 14.0

VG09-12_1_16,
VG09-12_1_16
Collection Time: 2/6/2015 2:58:24 PM
Operator Name  :
Scan Software Version: 3.00(182)
Parameter List :
Instrument                        Cary 5000
Instrument Version                1.09
Start (nm)                        1775.00
Stop (nm)                         1250.00
X Mode                            Nanometers
Y Mode                            %T
UV-Vis Data Interval (nm)         10.000
UV-Vis Ave. Time (sec)            0.100
UV-Vis SBW (nm)                   2.000
UV-Vis Energy                     1.00
Slit Height                       Full
Beam Mode                         Single front
Signal-to-noise Mode              Off
UV Source                         Off
Vis Source                        On
Third Source                      Off
Source Changeover (nm)            350.00
Detector Changeover (nm)          800.00
Grating Changeover (nm)           800.00
Baseline Correction               On
Baseline Type                     Baseline correction
Baseline File Name                C:\Documents and Settings\CNM_2\Desktop\users\gully\20140206\20150206_Cary_5.BSW
Baseline Std Ref File Name
Cycle Mode                        Off
Accessory                         Sample Transport
Comments
Method Log     :
Method Name    : C:\Documents and Settings\CNM_2\Desktop\users\gully\20140206\20150206_Cary_6.BSW
Date/Time stamp: 2/6/2015 2:50:31 PM
Method Modifications:
Saved as C:\Documents and Settings\CNM_2\Desktop\users\gully\20140206\20150206_Cary_6.BSW
End Method Modifications
<SBW (nm)> , 2.00
<Energy> , 3.00
<Slit height> , Full
<Current Wavelength> , 1250.00
<Current Distance> , 16.0

VG09-12_1_18,
VG09-12_1_18
Collection Time: 2/6/2015 2:59:22 PM
Operator Name  :
Scan Software Version: 3.00(182)
Parameter List :
Instrument                        Cary 5000
Instrument Version                1.09
Start (nm)                        1775.00
Stop (nm)                         1250.00
X Mode                            Nanometers
Y Mode                            %T
UV-Vis Data Interval (nm)         10.000
UV-Vis Ave. Time (sec)            0.100
UV-Vis SBW (nm)                   2.000
UV-Vis Energy                     1.00
Slit Height                       Full
Beam Mode                         Single front
Signal-to-noise Mode              Off
UV Source                         Off
Vis Source                        On
Third Source                      Off
Source Changeover (nm)            350.00
Detector Changeover (nm)          800.00
Grating Changeover (nm)           800.00
Baseline Correction               On
Baseline Type                     Baseline correction
Baseline File Name                C:\Documents and Settings\CNM_2\Desktop\users\gully\20140206\20150206_Cary_5.BSW
Baseline Std Ref File Name
Cycle Mode                        Off
Accessory                         Sample Transport
Comments
Method Log     :
Method Name    : C:\Documents and Settings\CNM_2\Desktop\users\gully\20140206\20150206_Cary_6.BSW
Date/Time stamp: 2/6/2015 2:50:31 PM
Method Modifications:
Saved as C:\Documents and Settings\CNM_2\Desktop\users\gully\20140206\20150206_Cary_6.BSW
End Method Modifications
<SBW (nm)> , 2.00
<Energy> , 3.00
<Slit height> , Full
<Current Wavelength> , 1250.00
<Current Distance> , 18.0

VG09-12_1_20,
VG09-12_1_20
Collection Time: 2/6/2015 3:00:19 PM
Operator Name  :
Scan Software Version: 3.00(182)
Parameter List :
Instrument                        Cary 5000
Instrument Version                1.09
Start (nm)                        1775.00
Stop (nm)                         1250.00
X Mode                            Nanometers
Y Mode                            %T
UV-Vis Data Interval (nm)         10.000
UV-Vis Ave. Time (sec)            0.100
UV-Vis SBW (nm)                   2.000
UV-Vis Energy                     1.00
Slit Height                       Full
Beam Mode                         Single front
Signal-to-noise Mode              Off
UV Source                         Off
Vis Source                        On
Third Source                      Off
Source Changeover (nm)            350.00
Detector Changeover (nm)          800.00
Grating Changeover (nm)           800.00
Baseline Correction               On
Baseline Type                     Baseline correction
Baseline File Name                C:\Documents and Settings\CNM_2\Desktop\users\gully\20140206\20150206_Cary_5.BSW
Baseline Std Ref File Name
Cycle Mode                        Off
Accessory                         Sample Transport
Comments
Method Log     :
Method Name    : C:\Documents and Settings\CNM_2\Desktop\users\gully\20140206\20150206_Cary_6.BSW
Date/Time stamp: 2/6/2015 2:50:31 PM
Method Modifications:
Saved as C:\Documents and Settings\CNM_2\Desktop\users\gully\20140206\20150206_Cary_6.BSW
End Method Modifications
<SBW (nm)> , 2.00
<Energy> , 3.00
<Slit height> , Full
<Current Wavelength> , 1250.00
<Current Distance> , 20.0

VG09-12_1_22,
VG09-12_1_22
Collection Time: 2/6/2015 3:01:17 PM
Operator Name  :
Scan Software Version: 3.00(182)
Parameter List :
Instrument                        Cary 5000
Instrument Version                1.09
Start (nm)                        1775.00
Stop (nm)                         1250.00
X Mode                            Nanometers
Y Mode                            %T
UV-Vis Data Interval (nm)         10.000
UV-Vis Ave. Time (sec)            0.100
UV-Vis SBW (nm)                   2.000
UV-Vis Energy                     1.00
Slit Height                       Full
Beam Mode                         Single front
Signal-to-noise Mode              Off
UV Source                         Off
Vis Source                        On
Third Source                      Off
Source Changeover (nm)            350.00
Detector Changeover (nm)          800.00
Grating Changeover (nm)           800.00
Baseline Correction               On
Baseline Type                     Baseline correction
Baseline File Name                C:\Documents and Settings\CNM_2\Desktop\users\gully\20140206\20150206_Cary_5.BSW
Baseline Std Ref File Name
Cycle Mode                        Off
Accessory                         Sample Transport
Comments
Method Log     :
Method Name    : C:\Documents and Settings\CNM_2\Desktop\users\gully\20140206\20150206_Cary_6.BSW
Date/Time stamp: 2/6/2015 3:00:31 PM
Method Modifications:
Saved as C:\Documents and Settings\CNM_2\Desktop\users\gully\20140206\20150206_Cary_6.BSW
End Method Modifications
<SBW (nm)> , 2.00
<Energy> , 3.00
<Slit height> , Full
<Current Wavelength> , 1249.00
<Current Distance> , 22.0

VG09-12_1_24,
VG09-12_1_24
Collection Time: 2/6/2015 3:02:14 PM
Operator Name  :
Scan Software Version: 3.00(182)
Parameter List :
Instrument                        Cary 5000
Instrument Version                1.09
Start (nm)                        1775.00
Stop (nm)                         1250.00
X Mode                            Nanometers
Y Mode                            %T
UV-Vis Data Interval (nm)         10.000
UV-Vis Ave. Time (sec)            0.100
UV-Vis SBW (nm)                   2.000
UV-Vis Energy                     1.00
Slit Height                       Full
Beam Mode                         Single front
Signal-to-noise Mode              Off
UV Source                         Off
Vis Source                        On
Third Source                      Off
Source Changeover (nm)            350.00
Detector Changeover (nm)          800.00
Grating Changeover (nm)           800.00
Baseline Correction               On
Baseline Type                     Baseline correction
Baseline File Name                C:\Documents and Settings\CNM_2\Desktop\users\gully\20140206\20150206_Cary_5.BSW
Baseline Std Ref File Name
Cycle Mode                        Off
Accessory                         Sample Transport
Comments
Method Log     :
Method Name    : C:\Documents and Settings\CNM_2\Desktop\users\gully\20140206\20150206_Cary_6.BSW
Date/Time stamp: 2/6/2015 3:00:31 PM
Method Modifications:
Saved as C:\Documents and Settings\CNM_2\Desktop\users\gully\20140206\20150206_Cary_6.BSW
End Method Modifications
<SBW (nm)> , 2.00
<Energy> , 3.00
<Slit height> , Full
<Current Wavelength> , 1249.00
<Current Distance> , 24.0

VG09-12_1_26,
VG09-12_1_26
Collection Time: 2/6/2015 3:03:12 PM
Operator Name  :
Scan Software Version: 3.00(182)
Parameter List :
Instrument                        Cary 5000
Instrument Version                1.09
Start (nm)                        1775.00
Stop (nm)                         1250.00
X Mode                            Nanometers
Y Mode                            %T
UV-Vis Data Interval (nm)         10.000
UV-Vis Ave. Time (sec)            0.100
UV-Vis SBW (nm)                   2.000
UV-Vis Energy                     1.00
Slit Height                       Full
Beam Mode                         Single front
Signal-to-noise Mode              Off
UV Source                         Off
Vis Source                        On
Third Source                      Off
Source Changeover (nm)            350.00
Detector Changeover (nm)          800.00
Grating Changeover (nm)           800.00
Baseline Correction               On
Baseline Type                     Baseline correction
Baseline File Name                C:\Documents and Settings\CNM_2\Desktop\users\gully\20140206\20150206_Cary_5.BSW
Baseline Std Ref File Name
Cycle Mode                        Off
Accessory                         Sample Transport
Comments
Method Log     :
Method Name    : C:\Documents and Settings\CNM_2\Desktop\users\gully\20140206\20150206_Cary_6.BSW
Date/Time stamp: 2/6/2015 3:00:31 PM
Method Modifications:
Saved as C:\Documents and Settings\CNM_2\Desktop\users\gully\20140206\20150206_Cary_6.BSW
End Method Modifications
<SBW (nm)> , 2.00
<Energy> , 3.00
<Slit height> , Full
<Current Wavelength> , 1249.00
<Current Distance> , 26.0

VG09-12_1_28,
VG09-12_1_28
Collection Time: 2/6/2015 3:04:09 PM
Operator Name  :
Scan Software Version: 3.00(182)
Parameter List :
Instrument                        Cary 5000
Instrument Version                1.09
Start (nm)                        1775.00
Stop (nm)                         1250.00
X Mode                            Nanometers
Y Mode                            %T
UV-Vis Data Interval (nm)         10.000
UV-Vis Ave. Time (sec)            0.100
UV-Vis SBW (nm)                   2.000
UV-Vis Energy                     1.00
Slit Height                       Full
Beam Mode                         Single front
Signal-to-noise Mode              Off
UV Source                         Off
Vis Source                        On
Third Source                      Off
Source Changeover (nm)            350.00
Detector Changeover (nm)          800.00
Grating Changeover (nm)           800.00
Baseline Correction               On
Baseline Type                     Baseline correction
Baseline File Name                C:\Documents and Settings\CNM_2\Desktop\users\gully\20140206\20150206_Cary_5.BSW
Baseline Std Ref File Name
Cycle Mode                        Off
Accessory                         Sample Transport
Comments
Method Log     :
Method Name    : C:\Documents and Settings\CNM_2\Desktop\users\gully\20140206\20150206_Cary_6.BSW
Date/Time stamp: 2/6/2015 3:00:31 PM
Method Modifications:
Saved as C:\Documents and Settings\CNM_2\Desktop\users\gully\20140206\20150206_Cary_6.BSW
End Method Modifications
<SBW (nm)> , 2.00
<Energy> , 3.00
<Slit height> , Full
<Current Wavelength> , 1250.00
<Current Distance> , 28.0

VG09-12_1_30,
VG09-12_1_30
Collection Time: 2/6/2015 3:05:06 PM
Operator Name  :
Scan Software Version: 3.00(182)
Parameter List :
Instrument                        Cary 5000
Instrument Version                1.09
Start (nm)                        1775.00
Stop (nm)                         1250.00
X Mode                            Nanometers
Y Mode                            %T
UV-Vis Data Interval (nm)         10.000
UV-Vis Ave. Time (sec)            0.100
UV-Vis SBW (nm)                   2.000
UV-Vis Energy                     1.00
Slit Height                       Full
Beam Mode                         Single front
Signal-to-noise Mode              Off
UV Source                         Off
Vis Source                        On
Third Source                      Off
Source Changeover (nm)            350.00
Detector Changeover (nm)          800.00
Grating Changeover (nm)           800.00
Baseline Correction               On
Baseline Type                     Baseline correction
Baseline File Name                C:\Documents and Settings\CNM_2\Desktop\users\gully\20140206\20150206_Cary_5.BSW
Baseline Std Ref File Name
Cycle Mode                        Off
Accessory                         Sample Transport
Comments
Method Log     :
Method Name    : C:\Documents and Settings\CNM_2\Desktop\users\gully\20140206\20150206_Cary_6.BSW
Date/Time stamp: 2/6/2015 3:00:31 PM
Method Modifications:
Saved as C:\Documents and Settings\CNM_2\Desktop\users\gully\20140206\20150206_Cary_6.BSW
End Method Modifications
<SBW (nm)> , 2.00
<Energy> , 3.00
<Slit height> , Full
<Current Wavelength> , 1249.00
<Current Distance> , 30.0

VG09-12_1_32,
VG09-12_1_32
Collection Time: 2/6/2015 3:06:04 PM
Operator Name  :
Scan Software Version: 3.00(182)
Parameter List :
Instrument                        Cary 5000
Instrument Version                1.09
Start (nm)                        1775.00
Stop (nm)                         1250.00
X Mode                            Nanometers
Y Mode                            %T
UV-Vis Data Interval (nm)         10.000
UV-Vis Ave. Time (sec)            0.100
UV-Vis SBW (nm)                   2.000
UV-Vis Energy                     1.00
Slit Height                       Full
Beam Mode                         Single front
Signal-to-noise Mode              Off
UV Source                         Off
Vis Source                        On
Third Source                      Off
Source Changeover (nm)            350.00
Detector Changeover (nm)          800.00
Grating Changeover (nm)           800.00
Baseline Correction               On
Baseline Type                     Baseline correction
Baseline File Name                C:\Documents and Settings\CNM_2\Desktop\users\gully\20140206\20150206_Cary_5.BSW
Baseline Std Ref File Name
Cycle Mode                        Off
Accessory                         Sample Transport
Comments
Method Log     :
Method Name    : C:\Documents and Settings\CNM_2\Desktop\users\gully\20140206\20150206_Cary_6.BSW
Date/Time stamp: 2/6/2015 3:00:31 PM
Method Modifications:
Saved as C:\Documents and Settings\CNM_2\Desktop\users\gully\20140206\20150206_Cary_6.BSW
End Method Modifications
<SBW (nm)> , 2.00
<Energy> , 3.00
<Slit height> , Full
<Current Wavelength> , 1250.00
<Current Distance> , 32.0

VG09-12_1_34,
VG09-12_1_34
Collection Time: 2/6/2015 3:07:01 PM
Operator Name  :
Scan Software Version: 3.00(182)
Parameter List :
Instrument                        Cary 5000
Instrument Version                1.09
Start (nm)                        1775.00
Stop (nm)                         1250.00
X Mode                            Nanometers
Y Mode                            %T
UV-Vis Data Interval (nm)         10.000
UV-Vis Ave. Time (sec)            0.100
UV-Vis SBW (nm)                   2.000
UV-Vis Energy                     1.00
Slit Height                       Full
Beam Mode                         Single front
Signal-to-noise Mode              Off
UV Source                         Off
Vis Source                        On
Third Source                      Off
Source Changeover (nm)            350.00
Detector Changeover (nm)          800.00
Grating Changeover (nm)           800.00
Baseline Correction               On
Baseline Type                     Baseline correction
Baseline File Name                C:\Documents and Settings\CNM_2\Desktop\users\gully\20140206\20150206_Cary_5.BSW
Baseline Std Ref File Name
Cycle Mode                        Off
Accessory                         Sample Transport
Comments
Method Log     :
Method Name    : C:\Documents and Settings\CNM_2\Desktop\users\gully\20140206\20150206_Cary_6.BSW
Date/Time stamp: 2/6/2015 3:00:31 PM
Method Modifications:
Saved as C:\Documents and Settings\CNM_2\Desktop\users\gully\20140206\20150206_Cary_6.BSW
End Method Modifications
<SBW (nm)> , 2.00
<Energy> , 3.00
<Slit height> , Full
<Current Wavelength> , 1250.00
<Current Distance> , 34.0

VG09-12_1_36,
VG09-12_1_36
Collection Time: 2/6/2015 3:07:58 PM
Operator Name  :
Scan Software Version: 3.00(182)
Parameter List :
Instrument                        Cary 5000
Instrument Version                1.09
Start (nm)                        1775.00
Stop (nm)                         1250.00
X Mode                            Nanometers
Y Mode                            %T
UV-Vis Data Interval (nm)         10.000
UV-Vis Ave. Time (sec)            0.100
UV-Vis SBW (nm)                   2.000
UV-Vis Energy                     1.00
Slit Height                       Full
Beam Mode                         Single front
Signal-to-noise Mode              Off
UV Source                         Off
Vis Source                        On
Third Source                      Off
Source Changeover (nm)            350.00
Detector Changeover (nm)          800.00
Grating Changeover (nm)           800.00
Baseline Correction               On
Baseline Type                     Baseline correction
Baseline File Name                C:\Documents and Settings\CNM_2\Desktop\users\gully\20140206\20150206_Cary_5.BSW
Baseline Std Ref File Name
Cycle Mode                        Off
Accessory                         Sample Transport
Comments
Method Log     :
Method Name    : C:\Documents and Settings\CNM_2\Desktop\users\gully\20140206\20150206_Cary_6.BSW
Date/Time stamp: 2/6/2015 3:00:31 PM
Method Modifications:
Saved as C:\Documents and Settings\CNM_2\Desktop\users\gully\20140206\20150206_Cary_6.BSW
End Method Modifications
<SBW (nm)> , 2.00
<Energy> , 3.00
<Slit height> , Full
<Current Wavelength> , 1250.00
<Current Distance> , 36.0

VG09-12_1_38,
VG09-12_1_38
Collection Time: 2/6/2015 3:08:56 PM
Operator Name  :
Scan Software Version: 3.00(182)
Parameter List :
Instrument                        Cary 5000
Instrument Version                1.09
Start (nm)                        1775.00
Stop (nm)                         1250.00
X Mode                            Nanometers
Y Mode                            %T
UV-Vis Data Interval (nm)         10.000
UV-Vis Ave. Time (sec)            0.100
UV-Vis SBW (nm)                   2.000
UV-Vis Energy                     1.00
Slit Height                       Full
Beam Mode                         Single front
Signal-to-noise Mode              Off
UV Source                         Off
Vis Source                        On
Third Source                      Off
Source Changeover (nm)            350.00
Detector Changeover (nm)          800.00
Grating Changeover (nm)           800.00
Baseline Correction               On
Baseline Type                     Baseline correction
Baseline File Name                C:\Documents and Settings\CNM_2\Desktop\users\gully\20140206\20150206_Cary_5.BSW
Baseline Std Ref File Name
Cycle Mode                        Off
Accessory                         Sample Transport
Comments
Method Log     :
Method Name    : C:\Documents and Settings\CNM_2\Desktop\users\gully\20140206\20150206_Cary_6.BSW
Date/Time stamp: 2/6/2015 3:00:31 PM
Method Modifications:
Saved as C:\Documents and Settings\CNM_2\Desktop\users\gully\20140206\20150206_Cary_6.BSW
End Method Modifications
<SBW (nm)> , 2.00
<Energy> , 3.00
<Slit height> , Full
<Current Wavelength> , 1249.00
<Current Distance> , 38.0

VG09-12_1_40,
VG09-12_1_40
Collection Time: 2/6/2015 3:09:53 PM
Operator Name  :
Scan Software Version: 3.00(182)
Parameter List :
Instrument                        Cary 5000
Instrument Version                1.09
Start (nm)                        1775.00
Stop (nm)                         1250.00
X Mode                            Nanometers
Y Mode                            %T
UV-Vis Data Interval (nm)         10.000
UV-Vis Ave. Time (sec)            0.100
UV-Vis SBW (nm)                   2.000
UV-Vis Energy                     1.00
Slit Height                       Full
Beam Mode                         Single front
Signal-to-noise Mode              Off
UV Source                         Off
Vis Source                        On
Third Source                      Off
Source Changeover (nm)            350.00
Detector Changeover (nm)          800.00
Grating Changeover (nm)           800.00
Baseline Correction               On
Baseline Type                     Baseline correction
Baseline File Name                C:\Documents and Settings\CNM_2\Desktop\users\gully\20140206\20150206_Cary_5.BSW
Baseline Std Ref File Name
Cycle Mode                        Off
Accessory                         Sample Transport
Comments
Method Log     :
Method Name    : C:\Documents and Settings\CNM_2\Desktop\users\gully\20140206\20150206_Cary_6.BSW
Date/Time stamp: 2/6/2015 3:00:31 PM
Method Modifications:
Saved as C:\Documents and Settings\CNM_2\Desktop\users\gully\20140206\20150206_Cary_6.BSW
End Method Modifications
<SBW (nm)> , 2.00
<Energy> , 3.00
<Slit height> , Full
<Current Wavelength> , 1249.00
<Current Distance> , 40.0

VG09-12_1_42,
VG09-12_1_42
Collection Time: 2/6/2015 3:10:50 PM
Operator Name  :
Scan Software Version: 3.00(182)
Parameter List :
Instrument                        Cary 5000
Instrument Version                1.09
Start (nm)                        1775.00
Stop (nm)                         1250.00
X Mode                            Nanometers
Y Mode                            %T
UV-Vis Data Interval (nm)         10.000
UV-Vis Ave. Time (sec)            0.100
UV-Vis SBW (nm)                   2.000
UV-Vis Energy                     1.00
Slit Height                       Full
Beam Mode                         Single front
Signal-to-noise Mode              Off
UV Source                         Off
Vis Source                        On
Third Source                      Off
Source Changeover (nm)            350.00
Detector Changeover (nm)          800.00
Grating Changeover (nm)           800.00
Baseline Correction               On
Baseline Type                     Baseline correction
Baseline File Name                C:\Documents and Settings\CNM_2\Desktop\users\gully\20140206\20150206_Cary_5.BSW
Baseline Std Ref File Name
Cycle Mode                        Off
Accessory                         Sample Transport
Comments
Method Log     :
Method Name    : C:\Documents and Settings\CNM_2\Desktop\users\gully\20140206\20150206_Cary_6.BSW
Date/Time stamp: 2/6/2015 3:10:31 PM
Method Modifications:
Saved as C:\Documents and Settings\CNM_2\Desktop\users\gully\20140206\20150206_Cary_6.BSW
End Method Modifications
<SBW (nm)> , 2.00
<Energy> , 3.00
<Slit height> , Full
<Current Wavelength> , 1249.00
<Current Distance> , 42.0

VG09-12_1_44,
VG09-12_1_44
Collection Time: 2/6/2015 3:11:48 PM
Operator Name  :
Scan Software Version: 3.00(182)
Parameter List :
Instrument                        Cary 5000
Instrument Version                1.09
Start (nm)                        1775.00
Stop (nm)                         1250.00
X Mode                            Nanometers
Y Mode                            %T
UV-Vis Data Interval (nm)         10.000
UV-Vis Ave. Time (sec)            0.100
UV-Vis SBW (nm)                   2.000
UV-Vis Energy                     1.00
Slit Height                       Full
Beam Mode                         Single front
Signal-to-noise Mode              Off
UV Source                         Off
Vis Source                        On
Third Source                      Off
Source Changeover (nm)            350.00
Detector Changeover (nm)          800.00
Grating Changeover (nm)           800.00
Baseline Correction               On
Baseline Type                     Baseline correction
Baseline File Name                C:\Documents and Settings\CNM_2\Desktop\users\gully\20140206\20150206_Cary_5.BSW
Baseline Std Ref File Name
Cycle Mode                        Off
Accessory                         Sample Transport
Comments
Method Log     :
Method Name    : C:\Documents and Settings\CNM_2\Desktop\users\gully\20140206\20150206_Cary_6.BSW
Date/Time stamp: 2/6/2015 3:10:31 PM
Method Modifications:
Saved as C:\Documents and Settings\CNM_2\Desktop\users\gully\20140206\20150206_Cary_6.BSW
End Method Modifications
<SBW (nm)> , 2.00
<Energy> , 3.00
<Slit height> , Full
<Current Wavelength> , 1250.00
<Current Distance> , 44.0

VG09-12_1_46,
VG09-12_1_46
Collection Time: 2/6/2015 3:12:45 PM
Operator Name  :
Scan Software Version: 3.00(182)
Parameter List :
Instrument                        Cary 5000
Instrument Version                1.09
Start (nm)                        1775.00
Stop (nm)                         1250.00
X Mode                            Nanometers
Y Mode                            %T
UV-Vis Data Interval (nm)         10.000
UV-Vis Ave. Time (sec)            0.100
UV-Vis SBW (nm)                   2.000
UV-Vis Energy                     1.00
Slit Height                       Full
Beam Mode                         Single front
Signal-to-noise Mode              Off
UV Source                         Off
Vis Source                        On
Third Source                      Off
Source Changeover (nm)            350.00
Detector Changeover (nm)          800.00
Grating Changeover (nm)           800.00
Baseline Correction               On
Baseline Type                     Baseline correction
Baseline File Name                C:\Documents and Settings\CNM_2\Desktop\users\gully\20140206\20150206_Cary_5.BSW
Baseline Std Ref File Name
Cycle Mode                        Off
Accessory                         Sample Transport
Comments
Method Log     :
Method Name    : C:\Documents and Settings\CNM_2\Desktop\users\gully\20140206\20150206_Cary_6.BSW
Date/Time stamp: 2/6/2015 3:10:31 PM
Method Modifications:
Saved as C:\Documents and Settings\CNM_2\Desktop\users\gully\20140206\20150206_Cary_6.BSW
End Method Modifications
<SBW (nm)> , 2.00
<Energy> , 3.00
<Slit height> , Full
<Current Wavelength> , 1249.00
<Current Distance> , 46.0

VG09-12_1_48,
VG09-12_1_48
Collection Time: 2/6/2015 3:13:42 PM
Operator Name  :
Scan Software Version: 3.00(182)
Parameter List :
Instrument                        Cary 5000
Instrument Version                1.09
Start (nm)                        1775.00
Stop (nm)                         1250.00
X Mode                            Nanometers
Y Mode                            %T
UV-Vis Data Interval (nm)         10.000
UV-Vis Ave. Time (sec)            0.100
UV-Vis SBW (nm)                   2.000
UV-Vis Energy                     1.00
Slit Height                       Full
Beam Mode                         Single front
Signal-to-noise Mode              Off
UV Source                         Off
Vis Source                        On
Third Source                      Off
Source Changeover (nm)            350.00
Detector Changeover (nm)          800.00
Grating Changeover (nm)           800.00
Baseline Correction               On
Baseline Type                     Baseline correction
Baseline File Name                C:\Documents and Settings\CNM_2\Desktop\users\gully\20140206\20150206_Cary_5.BSW
Baseline Std Ref File Name
Cycle Mode                        Off
Accessory                         Sample Transport
Comments
Method Log     :
Method Name    : C:\Documents and Settings\CNM_2\Desktop\users\gully\20140206\20150206_Cary_6.BSW
Date/Time stamp: 2/6/2015 3:10:31 PM
Method Modifications:
Saved as C:\Documents and Settings\CNM_2\Desktop\users\gully\20140206\20150206_Cary_6.BSW
End Method Modifications
<SBW (nm)> , 2.00
<Energy> , 3.00
<Slit height> , Full
<Current Wavelength> , 1250.00
<Current Distance> , 48.0

VG09-12_1_50,
VG09-12_1_50
Collection Time: 2/6/2015 3:14:40 PM
Operator Name  :
Scan Software Version: 3.00(182)
Parameter List :
Instrument                        Cary 5000
Instrument Version                1.09
Start (nm)                        1775.00
Stop (nm)                         1250.00
X Mode                            Nanometers
Y Mode                            %T
UV-Vis Data Interval (nm)         10.000
UV-Vis Ave. Time (sec)            0.100
UV-Vis SBW (nm)                   2.000
UV-Vis Energy                     1.00
Slit Height                       Full
Beam Mode                         Single front
Signal-to-noise Mode              Off
UV Source                         Off
Vis Source                        On
Third Source                      Off
Source Changeover (nm)            350.00
Detector Changeover (nm)          800.00
Grating Changeover (nm)           800.00
Baseline Correction               On
Baseline Type                     Baseline correction
Baseline File Name                C:\Documents and Settings\CNM_2\Desktop\users\gully\20140206\20150206_Cary_5.BSW
Baseline Std Ref File Name
Cycle Mode                        Off
Accessory                         Sample Transport
Comments
Method Log     :
Method Name    : C:\Documents and Settings\CNM_2\Desktop\users\gully\20140206\20150206_Cary_6.BSW
Date/Time stamp: 2/6/2015 3:10:31 PM
Method Modifications:
Saved as C:\Documents and Settings\CNM_2\Desktop\users\gully\20140206\20150206_Cary_6.BSW
End Method Modifications
<SBW (nm)> , 2.00
<Energy> , 3.00
<Slit height> , Full
<Current Wavelength> , 1250.00
<Current Distance> , 50.0

empty_5_1,
empty_5_1
Collection Time: 2/6/2015 3:18:03 PM
Operator Name  :
Scan Software Version: 3.00(182)
Parameter List :
Instrument                        Cary 5000
Instrument Version                1.09
Start (nm)                        1775.00
Stop (nm)                         1250.00
X Mode                            Nanometers
Y Mode                            %T
UV-Vis Data Interval (nm)         10.000
UV-Vis Ave. Time (sec)            0.100
UV-Vis SBW (nm)                   2.000
UV-Vis Energy                     1.00
Slit Height                       Full
Beam Mode                         Single front
Signal-to-noise Mode              Off
UV Source                         Off
Vis Source                        On
Third Source                      Off
Source Changeover (nm)            350.00
Detector Changeover (nm)          800.00
Grating Changeover (nm)           800.00
Baseline Correction               On
Baseline Type                     Baseline correction
Baseline File Name                C:\Documents and Settings\CNM_2\Desktop\users\gully\20140206\20150206_Cary_6.BSW
Baseline Std Ref File Name
Cycle Mode                        On
Cycle Count                       5
Cycle Time (min)                  1.00
Comments
Method Log     :
Method Name    : C:\Documents and Settings\CNM_2\Desktop\users\gully\20140206\20150206_Cary_7.BSW
Date/Time stamp: 2/6/2015 3:17:53 PM
Method Modifications:
Saved as C:\Documents and Settings\CNM_2\Desktop\users\gully\20140206\20150206_Cary_7.BSW
End Method Modifications
[Time] , 0.000
<SBW (nm)> , 2.00
<Energy> , 3.00
<Slit height> , Full
<Current Wavelength> , 1249.00
<Cycle Count> , 1
<Cycle Time> , 0:06

empty_5_2,
empty_5_2
Collection Time: 2/6/2015 3:19:05 PM
Operator Name  :
Scan Software Version: 3.00(182)
Parameter List :
Instrument                        Cary 5000
Instrument Version                1.09
Start (nm)                        1775.00
Stop (nm)                         1250.00
X Mode                            Nanometers
Y Mode                            %T
UV-Vis Data Interval (nm)         10.000
UV-Vis Ave. Time (sec)            0.100
UV-Vis SBW (nm)                   2.000
UV-Vis Energy                     1.00
Slit Height                       Full
Beam Mode                         Single front
Signal-to-noise Mode              Off
UV Source                         Off
Vis Source                        On
Third Source                      Off
Source Changeover (nm)            350.00
Detector Changeover (nm)          800.00
Grating Changeover (nm)           800.00
Baseline Correction               On
Baseline Type                     Baseline correction
Baseline File Name                C:\Documents and Settings\CNM_2\Desktop\users\gully\20140206\20150206_Cary_6.BSW
Baseline Std Ref File Name
Cycle Mode                        On
Cycle Count                       5
Cycle Time (min)                  1.00
Comments
Method Log     :
Method Name    : C:\Documents and Settings\CNM_2\Desktop\users\gully\20140206\20150206_Cary_7.BSW
Date/Time stamp: 2/6/2015 3:17:53 PM
Method Modifications:
Saved as C:\Documents and Settings\CNM_2\Desktop\users\gully\20140206\20150206_Cary_7.BSW
End Method Modifications
[Time] , 1.009
<SBW (nm)> , 2.00
<Energy> , 3.00
<Slit height> , Full
<Current Wavelength> , 1249.00
<Cycle Count> , 2
<Cycle Time> , 0:06

empty_5_3,
empty_5_3
Collection Time: 2/6/2015 3:20:05 PM
Operator Name  :
Scan Software Version: 3.00(182)
Parameter List :
Instrument                        Cary 5000
Instrument Version                1.09
Start (nm)                        1775.00
Stop (nm)                         1250.00
X Mode                            Nanometers
Y Mode                            %T
UV-Vis Data Interval (nm)         10.000
UV-Vis Ave. Time (sec)            0.100
UV-Vis SBW (nm)                   2.000
UV-Vis Energy                     1.00
Slit Height                       Full
Beam Mode                         Single front
Signal-to-noise Mode              Off
UV Source                         Off
Vis Source                        On
Third Source                      Off
Source Changeover (nm)            350.00
Detector Changeover (nm)          800.00
Grating Changeover (nm)           800.00
Baseline Correction               On
Baseline Type                     Baseline correction
Baseline File Name                C:\Documents and Settings\CNM_2\Desktop\users\gully\20140206\20150206_Cary_6.BSW
Baseline Std Ref File Name
Cycle Mode                        On
Cycle Count                       5
Cycle Time (min)                  1.00
Comments
Method Log     :
Method Name    : C:\Documents and Settings\CNM_2\Desktop\users\gully\20140206\20150206_Cary_7.BSW
Date/Time stamp: 2/6/2015 3:17:53 PM
Method Modifications:
Saved as C:\Documents and Settings\CNM_2\Desktop\users\gully\20140206\20150206_Cary_7.BSW
End Method Modifications
[Time] , 2.019
<SBW (nm)> , 2.00
<Energy> , 3.00
<Slit height> , Full
<Current Wavelength> , 1249.00
<Cycle Count> , 3
<Cycle Time> , 0:06

empty_5_4,
empty_5_4
Collection Time: 2/6/2015 3:21:06 PM
Operator Name  :
Scan Software Version: 3.00(182)
Parameter List :
Instrument                        Cary 5000
Instrument Version                1.09
Start (nm)                        1775.00
Stop (nm)                         1250.00
X Mode                            Nanometers
Y Mode                            %T
UV-Vis Data Interval (nm)         10.000
UV-Vis Ave. Time (sec)            0.100
UV-Vis SBW (nm)                   2.000
UV-Vis Energy                     1.00
Slit Height                       Full
Beam Mode                         Single front
Signal-to-noise Mode              Off
UV Source                         Off
Vis Source                        On
Third Source                      Off
Source Changeover (nm)            350.00
Detector Changeover (nm)          800.00
Grating Changeover (nm)           800.00
Baseline Correction               On
Baseline Type                     Baseline correction
Baseline File Name                C:\Documents and Settings\CNM_2\Desktop\users\gully\20140206\20150206_Cary_6.BSW
Baseline Std Ref File Name
Cycle Mode                        On
Cycle Count                       5
Cycle Time (min)                  1.00
Comments
Method Log     :
Method Name    : C:\Documents and Settings\CNM_2\Desktop\users\gully\20140206\20150206_Cary_7.BSW
Date/Time stamp: 2/6/2015 3:17:53 PM
Method Modifications:
Saved as C:\Documents and Settings\CNM_2\Desktop\users\gully\20140206\20150206_Cary_7.BSW
End Method Modifications
[Time] , 3.026
<SBW (nm)> , 2.00
<Energy> , 3.00
<Slit height> , Full
<Current Wavelength> , 1249.00
<Cycle Count> , 4
<Cycle Time> , 0:06

empty_5_5,
empty_5_5
Collection Time: 2/6/2015 3:22:06 PM
Operator Name  :
Scan Software Version: 3.00(182)
Parameter List :
Instrument                        Cary 5000
Instrument Version                1.09
Start (nm)                        1775.00
Stop (nm)                         1250.00
X Mode                            Nanometers
Y Mode                            %T
UV-Vis Data Interval (nm)         10.000
UV-Vis Ave. Time (sec)            0.100
UV-Vis SBW (nm)                   2.000
UV-Vis Energy                     1.00
Slit Height                       Full
Beam Mode                         Single front
Signal-to-noise Mode              Off
UV Source                         Off
Vis Source                        On
Third Source                      Off
Source Changeover (nm)            350.00
Detector Changeover (nm)          800.00
Grating Changeover (nm)           800.00
Baseline Correction               On
Baseline Type                     Baseline correction
Baseline File Name                C:\Documents and Settings\CNM_2\Desktop\users\gully\20140206\20150206_Cary_6.BSW
Baseline Std Ref File Name
Cycle Mode                        On
Cycle Count                       5
Cycle Time (min)                  1.00
Comments
Method Log     :
Method Name    : C:\Documents and Settings\CNM_2\Desktop\users\gully\20140206\20150206_Cary_7.BSW
Date/Time stamp: 2/6/2015 3:17:53 PM
Method Modifications:
Saved as C:\Documents and Settings\CNM_2\Desktop\users\gully\20140206\20150206_Cary_7.BSW
End Method Modifications
[Time] , 4.032
<SBW (nm)> , 2.00
<Energy> , 3.00
<Slit height> , Full
<Current Wavelength> , 1249.00
<Cycle Count> , 5
<Cycle Time> , 0:06

